DATA LOGGER INTERVAL @ 30ms
TIME(s),y(t)_Output,r(t)_SetPoint,Motor Velocity,u(t)_Input
1.11,-0.024,0.000,-0.068,0.081
1.14,0.015,0.000,-0.034,-0.099
1.17,0.005,0.000,-0.024,-0.001
1.20,-0.044,0.000,-0.034,0.152
1.23,0.000,0.000,-0.029,-0.074
1.26,-0.044,0.000,-0.059,0.138
1.29,0.000,0.000,-0.034,-0.085
1.32,0.000,0.000,-0.034,-0.013
1.35,-0.010,0.000,-0.039,0.034
1.38,0.010,0.000,-0.039,-0.041
1.41,-0.005,0.000,-0.024,0.026
1.44,-0.005,0.000,-0.039,0.020
1.47,0.000,0.000,-0.039,-0.003
1.50,0.005,0.000,-0.034,-0.014
1.53,-0.010,0.000,-0.088,0.075
1.56,-0.005,0.000,-0.034,-0.016
1.59,0.000,0.000,-0.024,-0.017
1.62,0.015,0.000,-0.029,-0.041
1.65,-0.073,0.000,-0.005,0.235
1.68,0.000,0.000,-0.034,-0.111
1.71,0.005,0.000,-0.024,-0.039
1.74,-0.078,0.000,-0.029,0.244
1.77,0.020,0.000,-0.029,-0.194
1.80,-0.005,0.000,-0.078,0.056
1.83,0.010,0.000,-0.039,-0.044
1.86,-0.005,0.000,-0.059,0.046
1.89,-0.010,0.000,-0.083,0.048
1.92,-0.015,0.000,-0.020,0.002
1.95,0.010,0.000,-0.034,-0.053
1.98,-0.005,0.000,-0.039,0.035
2.01,0.005,0.000,-0.039,-0.015
2.04,-0.039,0.000,-0.039,0.131
2.07,-0.034,0.000,-0.029,0.034
2.10,0.015,0.000,-0.039,-0.110
2.13,0.020,0.000,-0.029,-0.047
2.16,-0.034,0.000,-0.029,0.144
2.19,0.005,0.000,-0.034,-0.062
2.22,0.005,0.000,-0.083,0.018
2.25,-0.010,0.000,-0.039,0.028
2.28,0.005,0.000,-0.029,-0.034
2.31,0.000,0.000,-0.029,0.009
2.34,0.010,0.000,-0.020,-0.030
2.37,0.000,0.000,-0.029,0.026
2.40,-0.054,0.000,-0.039,0.176
2.43,0.000,0.000,-0.029,-0.095
2.46,-0.015,0.000,-0.049,0.040
2.49,0.000,0.000,-0.034,-0.030
2.52,-0.034,0.000,-0.039,0.104
2.55,0.024,0.000,-0.034,-0.133
2.58,0.005,0.000,-0.029,0.019
2.61,0.005,0.000,-0.039,0.010
2.64,0.005,0.000,0.000,-0.020
2.67,-0.015,0.000,-0.024,0.066
2.70,0.010,0.000,-0.049,-0.034
2.73,-0.039,0.000,-0.034,0.131
2.76,-0.005,0.000,-0.029,-0.052
2.79,-0.005,0.000,-0.024,-0.007
2.82,-0.005,0.000,-0.039,0.013
2.85,0.010,0.000,-0.034,-0.037
2.88,0.005,0.000,-0.029,0.003
2.91,-0.015,0.000,-0.049,0.071
2.94,0.000,0.000,-0.039,-0.021
2.97,0.005,0.000,-0.020,-0.026
3.00,-0.010,0.000,-0.034,0.047
3.03,-0.010,0.000,-0.049,0.028
3.06,0.000,0.000,-0.020,-0.030
3.09,-0.010,0.000,-0.039,0.037
3.12,-0.015,0.000,-0.034,0.030
3.15,0.000,0.000,-0.039,-0.022
3.18,0.010,0.000,-0.063,-0.014
3.21,-0.010,0.000,-0.039,0.043
3.24,-0.044,0.000,-0.044,0.125
3.27,-0.010,0.000,-0.039,-0.049
3.30,0.005,0.000,-0.112,0.001
3.33,0.005,0.000,-0.039,-0.033
3.36,-0.015,0.000,-0.063,0.068
3.39,-0.015,0.000,-0.073,0.036
3.42,0.010,0.000,-0.039,-0.069
3.45,-0.015,0.000,-0.039,0.058
3.48,-0.005,0.000,-0.034,-0.007
3.51,0.010,0.000,-0.024,-0.044
3.54,-0.010,0.000,-0.029,0.050
3.57,-0.044,0.000,-0.088,0.157
3.60,0.010,0.000,-0.044,-0.119
3.63,-0.005,0.000,-0.024,0.008
3.66,-0.010,0.000,-0.034,0.028
3.69,-0.005,0.000,-0.044,0.007
3.72,0.000,0.000,-0.034,-0.011
3.75,0.000,0.000,-0.034,0.002
3.78,-0.049,0.000,-0.029,0.148
3.81,-0.020,0.000,-0.034,-0.023
3.84,-0.010,0.000,-0.059,-0.003
3.87,0.005,0.000,-0.044,-0.041
3.90,-0.005,0.000,-0.039,0.021
3.93,-0.010,0.000,-0.029,0.021
3.96,-0.034,0.000,-0.010,0.075
3.99,-0.015,0.000,-0.044,-0.001
4.02,-0.044,0.000,-0.024,0.090
4.05,0.000,0.000,-0.029,-0.082
4.08,-0.054,0.000,-0.044,0.157
4.11,0.005,0.000,-0.029,-0.116
4.14,0.010,0.000,-0.034,-0.034
4.17,0.010,0.000,-0.039,-0.006
4.20,-0.015,0.000,-0.054,0.080
4.23,-0.020,0.000,-0.049,0.043
4.26,0.015,0.000,-0.078,-0.059
4.29,-0.010,0.000,-0.063,0.053
4.32,-0.010,0.000,-0.068,0.027
4.35,0.000,0.000,-0.024,-0.036
4.38,-0.010,0.000,-0.034,0.031
4.41,-0.020,0.000,-0.044,0.051
4.44,0.000,0.000,-0.029,-0.040
4.47,-0.073,0.000,-0.020,0.209
4.50,-0.010,0.000,-0.068,-0.073
4.53,0.000,0.000,-0.068,-0.030
4.56,0.010,0.000,-0.039,-0.045
4.59,-0.005,0.000,-0.044,0.037
4.62,-0.020,0.000,-0.034,0.054
4.65,-0.015,0.000,-0.039,0.015
4.68,0.000,0.000,-0.068,-0.010
4.71,-0.024,0.000,-0.039,0.062
4.74,-0.005,0.000,-0.029,-0.033
4.77,-0.024,0.000,-0.063,0.079
4.80,-0.005,0.000,-0.059,-0.023
4.83,0.005,0.000,-0.034,-0.039
4.86,-0.010,0.000,-0.029,0.034
4.89,-0.005,0.000,-0.049,0.013
4.92,-0.010,0.000,-0.039,0.020
4.95,0.010,0.000,-0.029,-0.050
4.98,0.000,0.000,-0.039,0.023
5.01,0.005,0.000,-0.044,-0.002
5.04,0.010,0.000,-0.039,-0.016
5.07,0.005,0.000,-0.034,0.007
5.10,0.005,0.000,-0.029,0.000
5.13,0.000,0.000,-0.020,0.009
5.16,-0.015,0.000,-0.029,0.054
5.19,-0.015,0.000,-0.024,0.020
5.22,-0.039,0.000,-0.029,0.092
5.25,-0.005,0.000,-0.029,-0.057
5.28,-0.015,0.000,-0.044,0.033
5.31,-0.034,0.000,-0.034,0.073
5.34,-0.054,0.000,-0.034,0.098
5.37,-0.010,0.000,-0.029,-0.079
5.40,-0.005,0.000,-0.039,-0.015
5.43,-0.010,5.000,-0.034,9.000
5.46,0.010,5.000,0.811,4.245
5.49,0.220,5.000,1.733,2.562
5.52,0.703,5.000,2.495,1.265
5.55,1.338,5.000,3.096,0.267
5.58,1.982,5.000,3.232,-0.136
5.61,2.651,5.000,3.071,-0.515
5.64,3.174,5.000,2.676,-0.392
5.67,3.633,5.000,2.056,-0.309
5.70,4.014,5.000,1.543,-0.323
5.73,4.307,5.000,1.123,-0.285
5.76,4.458,5.000,0.737,0.002
5.79,4.590,5.000,0.537,-0.038
5.82,4.678,5.000,0.391,-0.002
5.85,4.741,5.000,0.239,0.047
5.88,4.785,5.000,0.063,0.109
5.91,4.775,5.000,-0.049,0.240
5.94,4.805,5.000,-0.015,0.080
5.97,4.775,5.000,-0.034,0.235
6.00,4.766,5.000,-0.015,0.203
6.03,4.780,5.000,-0.039,0.154
6.06,4.795,5.000,-0.044,0.126
6.09,4.785,5.000,-0.024,0.171
6.12,4.795,5.000,-0.034,0.143
6.15,4.771,5.000,-0.044,0.235
6.18,4.785,5.000,-0.083,0.169
6.21,4.790,5.000,-0.039,0.132
6.24,4.785,5.000,-0.024,0.163
6.27,4.775,5.000,-0.083,0.229
6.30,4.785,5.000,-0.093,0.167
6.33,4.795,5.000,-0.073,0.132
6.36,4.790,5.000,-0.034,0.150
6.39,4.780,5.000,-0.034,0.189
6.42,4.780,5.000,-0.029,0.171
6.45,4.780,5.000,-0.029,0.170
6.48,4.795,5.000,-0.034,0.128
6.51,4.780,5.000,-0.054,0.208
6.54,4.785,5.000,-0.054,0.165
6.57,4.780,5.000,-0.073,0.195
6.60,4.780,5.000,-0.073,0.180
6.63,4.785,5.000,-0.029,0.136
6.66,4.785,5.000,-0.029,0.160
6.69,4.785,5.000,-0.024,0.161
6.72,4.756,5.000,-0.049,0.267
6.75,4.780,5.000,-0.039,0.127
6.78,4.790,5.000,-0.029,0.127
6.81,4.775,5.000,-0.039,0.205
6.84,4.717,5.000,-0.034,0.353
6.87,4.717,5.000,-0.073,0.268
6.90,4.795,5.000,-0.044,-0.020
6.93,4.785,5.000,-0.054,0.160
6.96,4.746,5.000,-0.049,0.282
6.99,4.785,5.000,-0.024,0.083
7.02,4.795,5.000,-0.059,0.140
7.05,4.790,5.000,-0.029,0.155
7.08,4.780,5.000,-0.034,0.193
7.11,4.780,5.000,-0.034,0.174
7.14,4.785,5.000,-0.078,0.183
7.17,4.785,5.000,-0.034,0.148
7.20,4.790,5.000,-0.039,0.151
7.23,4.756,5.000,-0.068,0.281
7.26,4.761,5.000,-0.024,0.170
7.29,4.785,5.000,-0.034,0.113
7.32,4.780,5.000,-0.044,0.176
7.35,4.780,5.000,-0.049,0.175
7.38,4.785,5.000,-0.024,0.143
7.41,4.775,5.000,-0.054,0.207
7.44,4.790,5.000,-0.034,0.127
7.47,4.771,5.000,-0.039,0.217
7.50,4.790,5.000,-0.034,0.124
7.53,4.785,5.000,-0.029,0.167
7.56,4.775,5.000,-0.034,0.198
7.59,4.785,5.000,-0.044,0.155
7.62,4.751,5.000,-0.034,0.262
7.65,4.790,5.000,-0.039,0.092
7.68,4.795,5.000,-0.024,0.126
7.71,4.780,5.000,-0.034,0.201
7.74,4.795,5.000,-0.020,0.123
7.77,4.775,5.000,-0.044,0.223
7.80,4.795,5.000,-0.044,0.126
7.83,4.790,5.000,-0.029,0.159
7.86,4.780,5.000,-0.044,0.199
7.89,4.795,5.000,-0.049,0.136
7.92,4.780,5.000,-0.039,0.194
7.95,4.790,5.000,-0.029,0.140
7.98,4.795,5.000,-0.083,0.175
8.01,4.790,5.000,-0.029,0.150
8.04,4.785,5.000,-0.029,0.174
8.07,4.780,5.000,-0.034,0.185
8.10,4.780,5.000,-0.034,0.173
8.13,4.785,5.000,-0.029,0.153
8.16,4.785,5.000,-0.073,0.189
8.19,4.756,5.000,-0.029,0.237
8.22,4.790,5.000,-0.039,0.101
8.25,4.795,5.000,-0.029,0.130
8.28,4.780,5.000,-0.059,0.214
8.31,4.780,5.000,-0.029,0.164
8.34,4.785,5.000,-0.024,0.151
8.37,4.727,5.000,-0.029,0.341
8.40,4.790,5.000,-0.024,0.042
8.43,4.795,5.000,-0.049,0.137
8.46,4.790,5.000,-0.029,0.159
8.49,4.780,5.000,-0.034,0.194
8.52,4.780,5.000,-0.029,0.172
8.55,4.775,5.000,-0.024,0.181
8.58,4.785,5.000,-0.024,0.145
8.61,4.775,5.000,-0.029,0.193
8.64,4.780,5.000,-0.020,0.156
8.67,4.785,5.000,-0.078,0.186
8.70,4.790,5.000,-0.049,0.143
8.73,4.780,5.000,-0.073,0.204
8.76,4.805,5.000,-0.054,0.097
8.79,4.741,5.000,-0.034,0.322
8.82,4.771,5.000,-0.015,0.124
8.85,4.790,5.000,-0.034,0.117
8.88,4.771,5.000,-0.039,0.215
8.91,4.780,5.000,-0.078,0.180
8.94,4.785,5.000,-0.039,0.139
8.97,4.790,5.000,-0.039,0.147
9.00,4.790,5.000,-0.088,0.189
9.03,4.790,5.000,-0.073,0.166
9.06,4.775,5.000,-0.039,0.191
9.09,4.775,5.000,-0.029,0.172
9.12,4.785,5.000,-0.103,0.187
9.15,4.785,5.000,-0.039,0.141
9.18,4.795,5.000,-0.039,0.132
9.21,4.780,5.000,-0.029,0.192
9.24,4.795,5.000,-0.063,0.150
9.27,4.805,5.000,-0.015,0.102
9.30,4.785,5.000,-0.024,0.204
9.33,4.761,5.000,-0.015,0.240
9.36,4.785,5.000,-0.049,0.141
9.39,4.795,5.000,-0.024,0.119
9.42,4.780,5.000,-0.029,0.197
9.45,4.790,5.000,-0.039,0.151
9.48,4.785,5.000,-0.024,0.167
9.51,4.805,5.000,-0.029,0.110
9.54,4.785,5.000,-0.044,0.210
9.57,4.814,5.000,0.000,0.062
9.60,4.785,5.000,-0.029,0.229
9.63,4.800,5.000,-0.029,0.134
9.66,4.780,5.000,-0.034,0.212
9.69,4.727,5.000,-0.044,0.345
9.72,4.780,5.000,-0.049,0.080
9.75,4.785,5.000,-0.029,0.127
9.78,4.785,5.000,-0.034,0.161
9.81,4.795,5.000,-0.044,0.142
9.84,4.785,5.000,-0.034,0.180
9.87,4.780,5.000,-0.049,0.192
9.90,4.712,5.000,-0.024,0.367
9.93,4.785,5.000,-0.024,0.029
9.96,4.790,5.000,-0.054,0.141
9.99,4.785,5.000,-0.024,0.158
10.02,4.795,5.000,-0.029,0.137
10.05,4.790,5.000,-0.083,0.201
10.08,4.790,5.000,-0.044,0.153
10.11,4.731,5.000,-0.039,0.335
10.14,4.790,5.000,-0.010,0.039
10.17,4.775,5.000,-0.059,0.208
10.20,4.766,5.000,-0.029,0.195
10.23,4.790,5.000,-0.034,0.113
10.26,4.775,5.000,-0.049,0.205
10.29,4.790,5.000,-0.039,0.132
10.32,4.790,5.000,-0.020,0.145
10.35,4.790,5.000,-0.020,0.157
10.38,4.785,5.000,-0.029,0.180
10.41,4.790,5.000,-0.039,0.160
10.44,4.722,5.000,-0.029,0.362
10.47,4.761,5.000,-0.015,0.117
10.50,4.785,5.000,-0.034,0.107
10.53,4.780,5.000,-0.078,0.195
10.56,4.785,5.000,-0.029,0.136
10.59,4.775,5.000,-0.024,0.186
10.62,4.780,5.000,-0.039,0.169
10.65,4.780,5.000,-0.103,0.208
10.68,4.785,5.000,-0.024,0.124
10.71,4.790,5.000,-0.049,0.157
10.74,4.790,5.000,-0.024,0.149
10.77,4.795,5.000,-0.034,0.150
10.80,4.780,5.000,-0.029,0.198
10.83,4.780,5.000,-0.068,0.198
10.86,4.785,5.000,-0.034,0.145
10.89,4.785,5.000,-0.088,0.194
10.92,4.751,5.000,-0.029,0.246
10.95,4.785,5.000,-0.034,0.102
10.98,4.785,5.000,-0.039,0.156
11.01,4.702,5.000,-0.039,0.414
11.04,4.771,5.000,0.000,0.038
11.07,4.785,5.000,-0.044,0.128
11.10,4.790,5.000,-0.049,0.148
11.13,4.805,5.000,-0.029,0.106
11.16,4.790,5.000,-0.039,0.192
11.19,4.800,5.000,-0.088,0.169
11.22,4.780,5.000,-0.088,0.223
11.25,4.795,5.000,-0.020,0.102
11.28,4.795,5.000,-0.034,0.155
11.31,4.790,5.000,-0.020,0.164
11.34,4.790,5.000,-0.034,0.170
11.37,4.785,5.000,-0.029,0.176
11.40,4.785,5.000,-0.024,0.165
11.43,4.790,5.000,-0.044,0.162
11.46,4.785,5.000,-0.039,0.175
11.49,4.790,5.000,-0.005,0.134
11.52,4.756,5.000,-0.034,0.273
11.55,4.795,5.000,-0.015,0.076
11.58,4.790,5.000,-0.029,0.164
11.61,4.790,5.000,-0.049,0.174
11.64,4.736,5.000,-0.039,0.322
11.67,4.795,5.000,-0.010,0.034
11.70,4.805,5.000,-0.049,0.125
11.73,4.785,5.000,-0.029,0.195
11.76,4.780,5.000,-0.044,0.195
11.79,4.741,5.000,-0.034,0.287
11.82,4.785,5.000,-0.015,0.073
11.85,4.790,5.000,-0.078,0.169
11.88,4.775,5.000,-0.024,0.181
11.91,4.795,5.000,-0.034,0.121
11.94,4.741,5.000,-0.034,0.313
11.97,4.785,5.000,-0.068,0.111
12.00,4.785,5.000,-0.049,0.148
12.03,4.780,5.000,-0.039,0.173
12.06,4.790,5.000,-0.029,0.136
12.09,4.751,5.000,-0.034,0.277
12.12,4.790,5.000,-0.015,0.080
12.15,4.785,5.000,-0.029,0.167
12.18,4.766,5.000,-0.029,0.224
12.21,4.780,5.000,-0.039,0.151
12.24,4.785,5.000,-0.034,0.149
12.27,4.790,5.000,-0.034,0.148
12.30,4.800,5.000,-0.020,0.122
12.33,4.785,5.000,-0.034,0.200
12.36,4.795,5.000,-0.029,0.141
12.39,4.785,5.000,-0.024,0.181
12.42,4.795,5.000,-0.044,0.150
12.45,4.785,5.000,-0.029,0.179
12.48,4.785,5.000,-0.034,0.171
12.51,4.775,5.000,-0.029,0.194
12.54,4.790,5.000,-0.034,0.136
12.57,4.785,5.000,-0.034,0.172
12.60,4.780,5.000,-0.029,0.179
12.63,4.785,5.000,-0.098,0.198
12.66,4.800,5.000,-0.039,0.101
12.69,4.790,5.000,-0.039,0.174
12.72,4.766,5.000,-0.083,0.265
12.75,4.780,5.000,-0.024,0.125
12.78,4.771,5.000,-0.034,0.195
12.81,4.800,5.000,-0.034,0.093
12.84,4.800,5.000,-0.078,0.169
12.87,4.790,5.000,-0.024,0.160
12.90,4.790,5.000,-0.034,0.167
12.93,4.795,5.000,-0.039,0.152
12.96,4.790,5.000,-0.044,0.176
12.99,4.775,5.000,-0.034,0.204
13.02,4.785,5.000,-0.029,0.148
13.05,4.785,5.000,-0.029,0.162
13.08,4.785,5.000,-0.029,0.165
13.11,4.790,5.000,-0.024,0.148
13.14,4.805,5.000,-0.029,0.117
13.17,4.775,5.000,-0.083,0.264
13.20,4.780,5.000,-0.015,0.142
13.23,4.785,5.000,-0.029,0.156
13.26,4.795,5.000,-0.063,0.155
13.29,4.785,5.000,-0.029,0.170
13.32,4.756,5.000,-0.029,0.254
13.35,4.780,5.000,-0.024,0.125
13.38,4.790,5.000,-0.034,0.136
13.41,4.790,5.000,-0.029,0.154
13.44,4.785,5.000,-0.024,0.172
13.47,4.775,5.000,-0.049,0.210
13.50,4.790,5.000,-0.039,0.133
13.53,4.771,5.000,-0.063,0.230
13.56,4.775,5.000,-0.044,0.165
13.59,4.790,5.000,-0.034,0.123
13.62,4.790,5.000,-0.039,0.158
13.65,4.775,5.000,-0.034,0.203
13.68,4.790,5.000,-0.063,0.153
13.71,4.780,5.000,-0.068,0.196
13.74,4.785,5.000,-0.088,0.176
13.77,4.736,5.000,-0.029,0.286
13.80,4.795,5.000,-0.034,0.046
13.83,4.780,5.000,-0.044,0.186
13.86,4.780,5.000,-0.024,0.163
13.89,4.780,5.000,-0.029,0.170
13.92,4.790,5.000,-0.029,0.140
13.95,4.790,5.000,-0.039,0.163
13.98,4.780,5.000,-0.034,0.190
14.01,4.785,5.000,-0.020,0.150
14.04,4.800,5.000,-0.044,0.132
14.07,4.785,5.000,-0.029,0.187
14.10,4.775,5.000,-0.024,0.196
14.13,4.741,5.000,-0.029,0.282
14.16,4.780,5.000,-0.024,0.095
14.19,4.800,5.000,-0.049,0.110
14.22,4.795,5.000,-0.034,0.154
14.25,4.717,5.000,-0.029,0.389
14.28,4.790,5.000,-0.044,0.040
14.31,4.785,5.000,-0.049,0.157
14.34,4.800,5.000,-0.039,0.116
14.37,4.795,5.000,-0.020,0.151
14.40,4.800,5.000,-0.029,0.147
14.43,4.790,5.000,-0.015,0.174
14.46,4.790,5.000,-0.049,0.183
14.49,4.780,5.000,-0.034,0.189
14.52,4.756,5.000,-0.044,0.253
14.55,4.780,5.000,-0.049,0.132
14.58,4.790,5.000,-0.039,0.129
14.61,4.795,5.000,-0.039,0.142
14.64,4.790,5.000,-0.034,0.168
14.67,4.780,5.000,-0.068,0.213
14.70,4.766,5.000,-0.029,0.203
14.73,4.766,5.000,-0.020,0.179
14.76,4.775,5.000,-0.034,0.158
14.79,4.785,5.000,-0.039,0.144
14.82,4.790,5.000,-0.029,0.142
14.85,4.785,5.000,-0.039,0.178
14.88,4.795,5.000,-0.034,0.137
14.91,4.780,5.000,-0.024,0.193
14.94,4.790,5.000,-0.034,0.150
14.97,4.790,5.000,-0.024,0.154
15.00,4.761,5.000,-0.020,0.245
15.03,4.790,5.000,-0.039,0.119
15.06,4.790,5.000,-0.029,0.149
15.09,4.780,5.000,-0.044,0.197
15.12,4.780,5.000,-0.024,0.165
15.15,4.775,5.000,-0.034,0.188
15.18,4.790,5.000,-0.029,0.130
15.21,4.785,-5.000,-0.029,-9.000
15.24,4.780,-5.000,-0.815,-7.181
15.27,4.531,-5.000,-1.748,-5.900
15.30,4.082,-5.000,-2.539,-4.867
15.33,3.516,-5.000,-3.267,-3.982
15.36,2.759,-5.000,-3.940,-2.839
15.39,1.973,-5.000,-4.546,-2.029
15.42,0.991,-5.000,-5.156,-0.733
15.45,-0.054,-5.000,-5.366,0.138
15.48,-1.089,-5.000,-5.259,0.745
15.51,-2.178,-5.000,-4.707,1.369
15.54,-2.974,-5.000,-3.179,0.616
15.57,-3.350,-5.000,-2.056,-0.257
15.60,-3.647,-5.000,-1.729,-0.098
15.63,-3.994,-5.000,-1.543,0.305
15.66,-4.272,-5.000,-1.338,0.355
15.69,-4.497,-5.000,-1.074,0.311
15.72,-4.692,-5.000,-0.811,0.317
15.75,-4.800,-5.000,-0.527,0.128
15.78,-4.839,-5.000,-0.327,-0.034
15.81,-4.878,-5.000,-0.190,-0.029
15.84,-4.893,-5.000,-0.073,-0.083
15.87,-4.893,-5.000,-0.044,-0.090
15.90,-4.902,-5.000,-0.044,-0.048
15.93,-4.946,-5.000,-0.029,0.060
15.96,-4.873,-5.000,-0.029,-0.236
15.99,-4.897,-5.000,-0.049,-0.035
16.02,-4.893,-5.000,-0.020,-0.095
16.05,-4.888,-5.000,-0.034,-0.087
16.08,-4.912,-5.000,-0.029,-0.010
16.11,-4.897,-5.000,-0.083,-0.063
16.14,-4.893,-5.000,-0.024,-0.114
16.17,-4.893,-5.000,-0.039,-0.076
16.20,-4.883,-5.000,-0.029,-0.110
16.23,-4.902,-5.000,-0.024,-0.033
16.26,-4.941,-5.000,-0.034,0.061
16.29,-4.897,-5.000,-0.054,-0.139
16.32,-4.937,-5.000,-0.024,0.017
16.35,-4.893,-5.000,-0.020,-0.167
16.38,-4.893,-5.000,-0.015,-0.098
16.41,-4.888,-5.000,-0.034,-0.085
16.44,-4.897,-5.000,-0.044,-0.045
16.47,-4.897,-5.000,-0.034,-0.071
16.50,-4.897,-5.000,-0.029,-0.075
16.53,-4.888,-5.000,-0.083,-0.070
16.56,-4.878,-5.000,-0.034,-0.130
16.59,-4.907,-5.000,-0.029,-0.010
16.62,-4.893,-5.000,-0.039,-0.092
16.65,-4.888,-5.000,-0.034,-0.096
16.68,-4.902,-5.000,-0.044,-0.033
16.71,-4.897,-5.000,-0.039,-0.077
16.74,-4.897,-5.000,-0.029,-0.078
16.77,-4.888,-5.000,-0.034,-0.100
16.80,-4.922,-5.000,-0.029,0.016
16.83,-4.888,-5.000,-0.024,-0.146
16.86,-4.888,-5.000,-0.054,-0.076
16.89,-4.893,-5.000,-0.029,-0.076
16.92,-4.878,-5.000,-0.054,-0.105
16.95,-4.893,-5.000,-0.024,-0.062
16.98,-4.902,-5.000,-0.044,-0.033
17.01,-4.897,-5.000,-0.024,-0.086
17.04,-4.897,-5.000,-0.024,-0.076
17.07,-4.917,-5.000,-0.078,0.017
17.10,-4.888,-5.000,-0.029,-0.154
17.13,-4.893,-5.000,-0.068,-0.057
17.16,-4.883,-5.000,-0.044,-0.112
17.19,-4.946,-5.000,-0.034,0.097
17.22,-4.893,-5.000,-0.029,-0.173
17.25,-4.897,-5.000,-0.034,-0.078
17.28,-4.912,-5.000,-0.039,-0.026
17.31,-4.893,-5.000,-0.034,-0.115
17.34,-4.897,-5.000,-0.039,-0.066
17.37,-4.888,-5.000,-0.044,-0.096
17.40,-4.888,-5.000,-0.054,-0.076
17.43,-4.897,-5.000,-0.063,-0.041
17.46,-4.893,-5.000,-0.093,-0.059
17.49,-4.893,-5.000,-0.034,-0.100
17.52,-4.883,-5.000,-0.029,-0.113
17.55,-4.897,-5.000,-0.029,-0.045
17.58,-4.907,-5.000,-0.054,-0.023
17.61,-4.893,-5.000,-0.034,-0.110
17.64,-4.897,-5.000,-0.034,-0.068
17.67,-4.897,-5.000,-0.015,-0.083
17.70,-4.912,-5.000,-0.024,-0.026
17.73,-4.902,-5.000,-0.151,-0.008
17.76,-4.907,-5.000,-0.029,-0.101
17.79,-4.888,-5.000,-0.034,-0.128
17.82,-4.893,-5.000,-0.034,-0.074
17.85,-4.888,-5.000,-0.044,-0.084
17.88,-4.893,-5.000,-0.059,-0.055
17.91,-4.888,-5.000,-0.034,-0.098
17.94,-4.902,-5.000,-0.029,-0.042
17.97,-4.907,-5.000,-0.054,-0.034
18.00,-4.873,-5.000,-0.020,-0.179
18.03,-4.893,-5.000,-0.034,-0.042
18.06,-4.888,-5.000,-0.029,-0.086
18.09,-4.893,-5.000,-0.029,-0.066
18.12,-4.897,-5.000,-0.039,-0.054
18.15,-4.883,-5.000,-0.107,-0.071
18.18,-4.902,-5.000,-0.020,-0.066
18.21,-4.902,-5.000,-0.024,-0.066
18.24,-4.893,-5.000,-0.078,-0.066
18.27,-4.893,-5.000,-0.029,-0.098
18.30,-4.897,-5.000,-0.029,-0.066
18.33,-4.917,-5.000,-0.024,-0.016
18.36,-4.893,-5.000,-0.034,-0.117
18.39,-4.883,-5.000,-0.024,-0.119
18.42,-4.897,-5.000,-0.029,-0.044
18.45,-4.917,-5.000,-0.049,0.003
18.48,-4.873,-5.000,-0.020,-0.193
18.51,-4.897,-5.000,-0.024,-0.036
18.54,-4.883,-5.000,-0.029,-0.107
18.57,-4.893,-5.000,-0.020,-0.065
18.60,-4.893,-5.000,-0.044,-0.060
18.63,-4.897,-5.000,-0.068,-0.042
18.66,-4.893,-5.000,-0.054,-0.085
18.69,-4.893,-5.000,-0.029,-0.090
18.72,-4.912,-5.000,-0.044,-0.011
18.75,-4.893,-5.000,-0.063,-0.097
18.78,-4.897,-5.000,-0.122,-0.026
18.81,-4.897,-5.000,-0.029,-0.108
18.84,-4.893,-5.000,-0.029,-0.094
18.87,-4.888,-5.000,-0.068,-0.071
18.90,-4.907,-5.000,-0.039,-0.032
18.93,-4.902,-5.000,-0.015,-0.087
18.96,-4.893,-5.000,-0.029,-0.095
18.99,-4.917,-5.000,-0.039,-0.001
19.02,-4.980,-5.000,-0.039,0.145
19.05,-4.893,-5.000,-0.029,-0.248
19.08,-4.893,-5.000,-0.029,-0.110
19.11,-4.888,-5.000,-0.059,-0.080
19.14,-4.883,-5.000,-0.044,-0.100
19.17,-4.902,-5.000,-0.063,-0.015
19.20,-4.902,-5.000,-0.024,-0.077
19.23,-4.873,-5.000,-0.015,-0.165
19.26,-4.927,-5.000,-0.029,0.063
19.29,-4.888,-5.000,-0.034,-0.142
19.32,-4.897,-5.000,-0.029,-0.065
19.35,-4.897,-5.000,-0.049,-0.059
19.38,-4.878,-5.000,-0.039,-0.132
19.41,-4.956,-5.000,-0.044,0.142
19.44,-4.927,-5.000,-0.039,-0.083
19.47,-4.907,-5.000,-0.029,-0.120
19.50,-4.888,-5.000,-0.034,-0.132
19.53,-4.961,-5.000,-0.029,0.127
19.56,-4.893,-5.000,-0.029,-0.200
19.59,-4.893,-5.000,-0.049,-0.089
19.62,-4.902,-5.000,-0.039,-0.053
19.65,-4.893,-5.000,-0.029,-0.100
19.68,-4.883,-5.000,-0.029,-0.110
19.71,-4.956,-5.000,-0.024,0.128
19.74,-4.893,-5.000,-0.034,-0.182
19.77,-4.888,-5.000,-0.029,-0.114
19.80,-4.893,-5.000,-0.088,-0.037
19.83,-4.902,-5.000,-0.034,-0.064
19.86,-4.888,-5.000,-0.029,-0.114
19.89,-4.897,-5.000,-0.029,-0.057
19.92,-4.966,-5.000,-0.073,0.162
19.95,-4.897,-5.000,-0.078,-0.181
19.98,-4.922,-5.000,-0.034,-0.042
20.01,-4.897,-5.000,-0.029,-0.127
20.04,-4.868,-5.000,-0.029,-0.171
20.07,-4.878,-5.000,-0.039,-0.075
20.10,-4.932,-5.000,-0.024,0.069
20.13,-4.893,-5.000,-0.015,-0.147
20.16,-4.902,-5.000,-0.088,-0.019
20.19,-4.927,-5.000,-0.039,-0.008
20.22,-4.893,-5.000,-0.029,-0.149
20.25,-4.937,-5.000,-0.063,0.062
20.28,-4.902,-5.000,-0.068,-0.118
20.31,-4.907,-5.000,-0.034,-0.080
20.34,-4.907,-5.000,-0.039,-0.065
20.37,-4.883,-5.000,-0.034,-0.140
20.40,-4.902,-5.000,-0.034,-0.036
20.43,-4.893,-5.000,-0.024,-0.097
20.46,-4.888,-5.000,-0.029,-0.093
20.49,-4.897,-5.000,-0.044,-0.044
20.52,-4.893,-5.000,-0.039,-0.083
20.55,-4.888,-5.000,-0.059,-0.079
20.58,-4.897,-5.000,-0.039,-0.059
20.61,-4.883,-5.000,-0.073,-0.092
20.64,-4.907,-5.000,-0.024,-0.036
20.67,-4.883,-5.000,-0.029,-0.130
20.70,-4.902,-5.000,-0.029,-0.034
20.73,-4.883,-5.000,-0.034,-0.118
20.76,-4.917,-5.000,-0.039,0.016
20.79,-4.893,-5.000,-0.034,-0.118
20.82,-4.902,-5.000,-0.078,-0.028
20.85,-4.897,-5.000,-0.029,-0.099
20.88,-4.897,-5.000,-0.034,-0.075
20.91,-4.902,-5.000,-0.063,-0.040
20.94,-4.888,-5.000,-0.029,-0.123
20.97,-4.893,-5.000,-0.024,-0.077
21.00,-4.902,-5.000,-0.044,-0.036
21.03,-4.897,-5.000,-0.034,-0.081
21.06,-4.883,-5.000,-0.034,-0.118
21.09,-4.907,-5.000,-0.024,-0.022
21.12,-4.932,-5.000,-0.029,0.019
21.15,-4.897,-5.000,-0.039,-0.130
21.18,-4.873,-5.000,-0.039,-0.156
21.21,-4.902,-5.000,-0.039,-0.015
21.24,-4.878,-5.000,-0.039,-0.130
21.27,-4.902,-5.000,-0.024,-0.030
21.30,-4.893,-5.000,-0.034,-0.085
21.33,-4.888,-5.000,-0.088,-0.060
21.36,-4.893,-5.000,-0.034,-0.086
21.39,-4.897,-5.000,-0.039,-0.060
21.42,-4.888,-5.000,-0.039,-0.098
21.45,-4.883,-5.000,-0.029,-0.103
21.48,-4.893,-5.000,-0.024,-0.061
21.51,-4.883,-5.000,-0.044,-0.091
21.54,-4.897,-5.000,-0.063,-0.028
21.57,-4.946,-5.000,-0.029,0.067
21.60,-4.873,-5.000,-0.059,-0.218
21.63,-4.897,-5.000,-0.039,-0.051
21.66,-4.893,-5.000,-0.039,-0.082
21.69,-4.951,-5.000,-0.034,0.097
21.72,-4.897,-5.000,-0.039,-0.164
21.75,-4.897,-5.000,-0.049,-0.084
21.78,-4.893,-5.000,-0.029,-0.099
21.81,-4.893,-5.000,-0.034,-0.078
21.84,-4.888,-5.000,-0.039,-0.088
21.87,-4.897,-5.000,-0.054,-0.042
21.90,-4.893,-5.000,-0.034,-0.090
21.93,-4.907,-5.000,-0.039,-0.031
21.96,-4.888,-5.000,-0.034,-0.119
21.99,-4.902,-5.000,-0.020,-0.052
22.02,-4.912,-5.000,-0.044,-0.023
22.05,-4.932,-5.000,-0.083,0.030
22.08,-4.951,-5.000,-0.034,0.004
22.11,-4.922,-5.000,-0.015,-0.124
22.14,-4.893,-5.000,-0.059,-0.131
22.17,-4.893,-5.000,-0.024,-0.104
22.20,-4.912,-5.000,-0.044,-0.012
22.23,-4.893,-5.000,-0.024,-0.120
22.26,-4.907,-5.000,-0.029,-0.039
22.29,-4.902,-5.000,-0.034,-0.072
22.32,-4.917,-5.000,-0.039,-0.022
22.35,-4.917,-5.000,-0.029,-0.055
22.38,-4.937,-5.000,-0.034,0.004
22.41,-4.937,-5.000,-0.039,-0.030
22.44,-4.883,-5.000,-0.020,-0.212
22.47,-4.897,-5.000,-0.029,-0.061
22.50,-4.893,-5.000,-0.039,-0.079
22.53,-4.956,-5.000,-0.044,0.118
22.56,-4.907,-5.000,-0.024,-0.156
22.59,-4.888,-5.000,-0.049,-0.128
22.62,-4.893,-5.000,-0.020,-0.090
22.65,-4.883,-5.000,-0.034,-0.101
22.68,-4.907,-5.000,-0.034,-0.013
22.71,-4.897,-5.000,-0.034,-0.083
22.74,-4.893,-5.000,-0.029,-0.092
22.77,-4.893,-5.000,-0.024,-0.082
22.80,-4.893,-5.000,-0.029,-0.075
22.83,-4.888,-5.000,-0.044,-0.082
22.86,-4.907,-5.000,-0.088,0.006
22.89,-4.893,-5.000,-0.039,-0.117
22.92,-4.922,-5.000,-0.039,0.005
22.95,-4.888,-5.000,-0.039,-0.144
22.98,-4.897,-5.000,-0.039,-0.062
23.01,-4.893,-5.000,-0.034,-0.087
23.04,-4.897,-5.000,-0.029,-0.066
23.07,-4.902,-5.000,-0.034,-0.054
23.10,-4.907,-5.000,-0.117,-0.001
23.13,-4.897,-5.000,-0.034,-0.121
23.16,-4.893,-5.000,-0.034,-0.096
23.19,-4.902,-5.000,-0.029,-0.053
23.22,-4.893,-5.000,-0.029,-0.095
23.25,-4.946,-5.000,-0.024,0.078
23.28,-4.893,-5.000,-0.034,-0.169
23.31,-4.907,-5.000,-0.044,-0.044
23.34,-4.893,-5.000,-0.029,-0.112
23.37,-4.897,-5.000,-0.034,-0.066
23.40,-4.897,-5.000,-0.024,-0.076
23.43,-4.888,-5.000,-0.049,-0.089
23.46,-4.902,-5.000,-0.034,-0.044
23.49,-4.897,-5.000,-0.039,-0.075
23.52,-4.902,-5.000,-0.049,-0.051
23.55,-4.888,-5.000,-0.029,-0.119
23.58,-4.893,-5.000,-0.044,-0.064
23.61,-4.858,-5.000,-0.010,-0.195
23.64,-4.888,-5.000,-0.024,-0.026
23.67,-4.883,-5.000,-0.010,-0.093
23.70,-4.912,-5.000,-0.103,0.056
23.73,-4.893,-5.000,-0.024,-0.135
23.76,-4.893,-5.000,-0.034,-0.083
23.79,-4.883,-5.000,-0.034,-0.106
23.82,-4.883,-5.000,-0.024,-0.093
23.85,-4.893,-5.000,-0.044,-0.045
23.88,-4.888,-5.000,-0.044,-0.083
23.91,-4.902,-5.000,-0.039,-0.038
23.94,-4.897,-5.000,-0.034,-0.079
23.97,-4.902,-5.000,-0.039,-0.056
24.00,-4.897,-5.000,-0.024,-0.088
24.03,-4.893,-5.000,-0.039,-0.082
24.06,-4.893,-5.000,-0.024,-0.085
24.09,-4.902,-5.000,-0.049,-0.035
24.12,-4.937,-5.000,-0.044,0.040
24.15,-4.912,-5.000,-0.049,-0.095
24.18,-4.932,-5.000,-0.034,-0.016
24.21,-4.893,-5.000,-0.039,-0.154
24.24,-4.946,-5.000,-0.063,0.085
24.27,-4.897,-5.000,-0.039,-0.169
24.30,-4.893,-5.000,-0.034,-0.108
24.33,-4.893,-5.000,-0.039,-0.079
24.36,-4.902,-5.000,-0.044,-0.043
24.39,-4.883,-5.000,-0.039,-0.124
24.42,-4.883,-5.000,-0.039,-0.090
24.45,-4.897,-5.000,-0.029,-0.046
24.48,-4.897,-5.000,-0.049,-0.055
24.51,-4.907,-5.000,-0.044,-0.040
24.54,-4.893,-5.000,-0.044,-0.102
24.57,-4.917,-5.000,-0.034,-0.012
24.60,-4.888,-5.000,-0.034,-0.136
24.63,-4.893,-5.000,-0.044,-0.070
24.66,-5.000,-5.000,-0.034,0.243
24.69,-4.902,-5.000,-0.020,-0.249
24.72,-4.907,-5.000,-0.054,-0.071
24.75,-4.897,-5.000,-0.127,-0.049
24.78,-4.873,-5.000,-0.034,-0.185
24.81,-4.897,-5.000,-0.039,-0.033
24.84,-4.897,-5.000,-0.034,-0.066
24.87,-4.922,-5.000,-0.049,0.011
24.90,-4.897,-5.000,-0.034,-0.121
24.93,-4.893,-5.000,-0.029,-0.099
24.96,-4.907,-5.000,-0.073,-0.010
24.99,-4.951,-5.000,-0.020,0.051
25.02,-4.893,-5.000,-0.029,-0.187
25.05,-4.922,-5.000,-0.044,-0.002
25.08,-4.902,-5.000,-0.034,-0.106
25.11,-4.897,-5.000,-0.029,-0.093
25.14,-4.883,-5.000,-0.024,-0.124
25.17,-4.897,-5.000,-0.039,-0.039
25.20,-4.878,-5.000,-0.039,-0.123
25.23,-4.990,-5.000,-0.015,0.229
25.26,-4.917,-5.000,-0.039,-0.163
25.29,-4.888,-5.000,-0.029,-0.172
25.32,-4.893,-5.000,-0.029,-0.084
25.35,-4.883,-5.000,-0.034,-0.104
25.38,-4.893,-5.000,-0.029,-0.061
25.41,-4.897,-5.000,-0.029,-0.058
25.44,-4.897,-5.000,-0.068,-0.046
25.47,-4.897,-5.000,-0.034,-0.083
25.50,-4.897,-5.000,-0.044,-0.068
25.53,-4.897,3.000,-0.049,9.000
25.56,-4.902,3.000,0.576,6.184
25.59,-4.712,3.000,1.489,4.790
25.62,-4.331,3.000,2.236,3.816
25.65,-3.774,3.000,2.983,2.775
25.68,-3.130,3.000,3.638,1.936
25.71,-2.314,3.000,4.272,0.801
25.74,-1.392,3.000,4.526,-0.085
25.77,-0.601,3.000,4.443,-0.248
25.80,0.347,3.000,4.194,-1.115
25.83,1.045,3.000,3.105,-0.576
25.86,1.606,3.000,1.987,-0.328
25.89,1.875,3.000,1.367,0.098
25.92,2.153,3.000,1.055,-0.117
25.95,2.295,3.000,0.879,0.039
25.98,2.476,3.000,0.742,-0.135
26.01,2.607,3.000,0.586,-0.103
26.04,2.661,3.000,0.386,0.104
26.07,2.773,3.000,0.220,-0.060
26.10,2.803,3.000,0.024,0.127
26.13,2.817,3.000,-0.049,0.141
26.16,2.749,3.000,-0.073,0.363
26.19,2.813,3.000,0.015,-0.011
26.22,2.778,3.000,-0.044,0.246
26.25,2.817,3.000,-0.063,0.082
26.28,2.793,3.000,-0.034,0.189
26.31,2.803,3.000,-0.063,0.154
26.34,2.803,3.000,-0.098,0.177
26.37,2.793,3.000,-0.049,0.166
26.40,2.769,3.000,-0.024,0.222
26.43,2.798,3.000,-0.049,0.113
26.46,2.798,3.000,-0.034,0.141
26.49,2.793,3.000,-0.034,0.168
26.52,2.803,3.000,-0.034,0.133
26.55,2.817,3.000,-0.039,0.108
26.58,2.813,3.000,-0.020,0.139
26.61,2.798,3.000,-0.034,0.195
26.64,2.817,3.000,-0.024,0.100
26.67,2.798,3.000,-0.039,0.200
26.70,2.798,3.000,-0.059,0.178
26.73,2.808,3.000,-0.034,0.120
26.76,2.798,3.000,-0.034,0.173
26.79,2.783,3.000,-0.039,0.207
26.82,2.793,3.000,-0.039,0.147
26.85,2.803,3.000,-0.015,0.114
26.88,2.764,3.000,-0.029,0.269
26.91,2.813,3.000,-0.020,0.047
26.94,2.817,3.000,-0.024,0.112
26.97,2.808,3.000,-0.020,0.161
27.00,2.788,3.000,-0.049,0.226
27.03,2.798,3.000,-0.024,0.134
27.06,2.754,3.000,-0.034,0.289
27.09,2.817,3.000,-0.024,0.013
27.12,2.788,3.000,-0.034,0.209
27.15,2.798,3.000,-0.029,0.141
27.18,2.798,3.000,-0.034,0.156
27.21,2.798,3.000,-0.034,0.157
27.24,2.710,3.000,-0.015,0.409
27.27,2.783,3.000,0.005,0.026
27.30,2.813,3.000,-0.039,0.073
27.33,2.803,3.000,-0.054,0.170
27.36,2.827,3.000,-0.020,0.065
27.39,2.803,3.000,-0.034,0.201
27.42,2.803,3.000,-0.020,0.154
27.45,2.803,3.000,-0.029,0.157
27.48,2.803,3.000,-0.044,0.162
27.51,2.817,3.000,-0.083,0.136
27.54,2.813,3.000,-0.029,0.129
27.57,2.808,3.000,-0.059,0.174
27.60,2.808,3.000,-0.049,0.151
27.63,2.803,3.000,-0.024,0.152
27.66,2.808,3.000,-0.029,0.140
27.69,2.813,3.000,-0.039,0.138
27.72,2.808,3.000,-0.024,0.151
27.75,2.798,3.000,-0.034,0.184
27.78,2.783,3.000,-0.059,0.221
27.81,2.798,3.000,-0.034,0.123
27.84,2.813,3.000,-0.039,0.109
27.87,2.808,3.000,-0.015,0.139
27.90,2.813,3.000,-0.029,0.139
27.93,2.803,3.000,-0.029,0.173
27.96,2.798,3.000,-0.078,0.200
27.99,2.803,3.000,-0.054,0.141
28.02,2.803,3.000,-0.020,0.133
28.05,2.798,3.000,-0.029,0.168
28.08,2.817,3.000,-0.034,0.103
28.11,2.813,3.000,-0.024,0.143
28.14,2.793,3.000,-0.039,0.211
28.17,2.788,3.000,-0.020,0.174
28.20,2.813,3.000,-0.029,0.097
28.23,2.808,3.000,-0.029,0.150
28.26,2.808,3.000,-0.029,0.149
28.29,2.773,3.000,-0.020,0.245
28.32,2.803,3.000,-0.039,0.111
28.35,2.788,3.000,-0.020,0.178
28.38,2.788,3.000,-0.044,0.180
28.41,2.808,3.000,-0.068,0.124
28.44,2.769,3.000,-0.034,0.245
28.47,2.798,3.000,-0.039,0.107
28.50,2.808,3.000,-0.039,0.118
28.53,2.808,3.000,-0.034,0.141
28.56,2.808,3.000,-0.044,0.154
28.59,2.798,3.000,-0.034,0.175
28.62,2.813,3.000,-0.029,0.113
28.65,2.798,3.000,-0.054,0.197
28.68,2.793,3.000,-0.029,0.167
28.71,2.798,3.000,-0.024,0.144
28.74,2.803,3.000,-0.015,0.132
28.77,2.808,3.000,-0.024,0.138
28.80,2.808,3.000,-0.034,0.152
28.83,2.817,3.000,-0.024,0.115
28.86,2.817,3.000,-0.034,0.141
28.89,2.783,3.000,-0.024,0.239
28.92,2.813,3.000,-0.024,0.093
28.95,2.798,3.000,-0.034,0.184
28.98,2.783,3.000,-0.049,0.215
29.01,2.813,3.000,-0.029,0.079
29.04,2.764,3.000,-0.034,0.281
29.07,2.793,3.000,-0.029,0.111
29.10,2.813,3.000,-0.024,0.088
29.13,2.808,3.000,-0.024,0.148
29.16,2.793,3.000,-0.059,0.212
29.19,2.798,3.000,-0.059,0.159
29.22,2.808,3.000,-0.068,0.137
29.25,2.803,3.000,-0.024,0.139
29.28,2.808,3.000,-0.029,0.137
29.31,2.788,3.000,-0.020,0.199
29.34,2.778,3.000,-0.034,0.207
29.37,2.793,3.000,-0.024,0.129
29.40,2.798,3.000,-0.039,0.147
29.43,2.817,3.000,-0.034,0.094
29.46,2.808,3.000,-0.034,0.162
29.49,2.813,3.000,-0.034,0.137
29.52,2.803,3.000,-0.034,0.173
29.55,2.803,3.000,-0.078,0.183
29.58,2.813,3.000,-0.020,0.100
29.61,2.817,3.000,-0.044,0.135
29.64,2.793,3.000,-0.024,0.203
29.67,2.754,3.000,-0.044,0.297
29.70,2.803,3.000,-0.044,0.066
29.73,2.764,3.000,-0.039,0.251
29.76,2.808,3.000,-0.015,0.050
29.79,2.813,3.000,-0.039,0.127
29.82,2.822,3.000,-0.073,0.134
29.85,2.788,3.000,-0.049,0.230
29.88,2.803,3.000,-0.039,0.129
29.91,2.803,3.000,-0.054,0.158
29.94,2.793,3.000,-0.054,0.186
29.97,2.798,3.000,0.020,0.109
30.00,2.813,3.000,-0.029,0.126
30.03,2.803,3.000,-0.029,0.171
30.06,2.817,3.000,-0.034,0.115
30.09,2.798,3.000,-0.010,0.181
30.12,2.798,3.000,-0.039,0.176
30.15,2.813,3.000,-0.103,0.155
30.18,2.808,3.000,-0.039,0.132
30.21,2.803,3.000,-0.044,0.164
30.24,2.769,3.000,-0.024,0.247
30.27,2.798,3.000,-0.024,0.103
30.30,2.813,3.000,-0.029,0.104
30.33,2.813,3.000,-0.059,0.154
30.36,2.798,3.000,-0.034,0.180
30.39,2.798,3.000,-0.044,0.167
30.42,2.798,3.000,-0.034,0.154
30.45,2.808,3.000,-0.034,0.127
30.48,2.778,3.000,-0.024,0.227
30.51,2.803,3.000,-0.034,0.114
30.54,2.813,3.000,-0.039,0.119
30.57,2.793,3.000,-0.093,0.232
30.60,2.813,3.000,-0.020,0.079
30.63,2.803,3.000,-0.044,0.175
30.66,2.788,3.000,-0.034,0.197
30.69,2.803,3.000,-0.029,0.124
30.72,2.803,3.000,-0.015,0.138
30.75,2.803,3.000,-0.039,0.162
30.78,2.817,3.000,-0.024,0.103
30.81,2.783,3.000,-0.073,0.265
30.84,2.793,3.000,-0.029,0.136
30.87,2.803,3.000,-0.059,0.143
30.90,2.798,3.000,-0.034,0.154
30.93,2.793,3.000,-0.039,0.174
30.96,2.822,3.000,-0.088,0.105
30.99,2.813,3.000,-0.024,0.129
31.02,2.813,3.000,-0.034,0.147
31.05,2.808,3.000,-0.044,0.167
31.08,2.813,3.000,-0.020,0.125
31.11,2.788,3.000,-0.034,0.222
31.14,2.817,3.000,-0.034,0.088
31.17,2.803,3.000,-0.024,0.169
31.20,2.749,3.000,-0.044,0.328
31.23,2.817,3.000,-0.073,0.034
31.26,2.783,3.000,-0.044,0.210
31.29,2.803,3.000,-0.029,0.110
31.32,2.808,3.000,-0.044,0.138
31.35,2.808,3.000,-0.034,0.142
31.38,2.813,3.000,-0.034,0.133
31.41,2.803,3.000,-0.024,0.167
31.44,2.813,3.000,-0.039,0.134
31.47,2.788,3.000,-0.034,0.214
31.50,2.803,3.000,-0.024,0.124
31.53,2.817,3.000,-0.029,0.105
31.56,2.803,3.000,-0.024,0.175
31.59,2.817,3.000,-0.044,0.124
31.62,2.798,3.000,-0.049,0.201
31.65,2.759,3.000,-0.034,0.276
31.68,2.803,3.000,-0.029,0.069
31.71,2.808,3.000,-0.024,0.118
31.74,2.798,3.000,-0.083,0.206
31.77,2.793,3.000,-0.034,0.158
31.80,2.793,3.000,-0.020,0.151
31.83,2.813,3.000,-0.024,0.101
31.86,2.739,3.000,-0.034,0.361
31.89,2.803,3.000,-0.029,0.039
31.92,2.793,3.000,-0.054,0.174
31.95,2.788,3.000,-0.034,0.168
31.98,2.788,3.000,-0.034,0.165
32.01,2.793,3.000,-0.029,0.147
32.04,2.808,3.000,-0.034,0.116
32.07,2.783,3.000,-0.029,0.213
32.10,2.803,6.187,-0.020,9.000
32.13,2.808,6.162,0.493,3.437
32.16,3.066,6.187,1.450,1.364
32.19,3.384,6.191,2.222,0.570
32.22,3.872,6.182,2.480,-0.117
32.25,4.453,6.133,2.412,-0.784
32.28,4.868,6.182,1.855,-0.203
32.31,5.205,6.177,1.216,-0.117
32.34,5.420,6.152,0.947,-0.143
32.37,5.581,6.187,0.771,0.022
32.40,5.723,6.182,0.630,-0.079
32.43,5.825,6.191,0.474,-0.001
32.46,5.923,6.177,0.313,-0.077
32.49,5.981,6.182,0.127,0.050
32.52,5.991,6.172,-0.029,0.150
32.55,5.981,6.182,-0.024,0.198
32.58,6.006,6.177,-0.039,0.083
32.61,5.981,6.108,-0.024,-0.017
32.64,6.016,6.187,-0.044,0.219
32.67,5.972,6.064,-0.024,-0.094
32.70,5.986,6.177,-0.024,0.333
32.73,6.006,6.196,-0.049,0.198
32.76,5.986,6.187,-0.024,0.174
32.79,5.986,6.143,-0.034,0.032
32.82,5.981,6.167,-0.054,0.204
32.85,6.001,6.182,-0.044,0.138
32.88,5.996,6.182,-0.029,0.147
32.91,5.947,6.177,-0.063,0.297
32.94,6.011,6.187,-0.039,0.029
32.97,5.991,6.172,-0.034,0.128
33.00,5.947,6.182,-0.103,0.340
33.03,5.991,6.196,-0.024,0.086
33.06,5.996,6.128,-0.049,-0.062
33.09,5.952,6.177,-0.010,0.327
33.12,5.981,6.172,-0.024,0.108
33.15,5.977,6.162,-0.078,0.156
33.18,5.996,6.177,-0.024,0.105
33.21,5.996,6.182,-0.029,0.150
33.24,5.981,6.172,-0.039,0.165
33.27,5.996,6.172,-0.020,0.096
33.30,5.996,6.177,-0.044,0.156
33.33,5.981,6.177,-0.034,0.183
33.36,6.001,6.187,-0.054,0.140
33.39,5.991,6.118,-0.020,-0.050
33.42,5.962,6.191,-0.059,0.399
33.45,5.991,6.133,-0.010,-0.068
33.48,5.996,6.104,-0.049,-0.007
33.51,5.972,6.182,-0.029,0.365
33.54,6.001,6.182,-0.044,0.123
33.57,5.957,6.177,-0.034,0.250
33.60,5.996,6.177,-0.029,0.066
33.63,6.021,6.177,-0.039,0.058
33.66,5.996,6.211,-0.024,0.277
33.69,5.977,6.172,-0.029,0.132
33.72,6.001,6.182,-0.034,0.106
33.75,5.996,6.128,-0.034,-0.013
33.78,5.991,6.196,-0.039,0.303
33.81,5.996,6.201,-0.029,0.183
33.84,5.977,6.172,-0.024,0.131
33.87,6.001,6.182,-0.015,0.096
33.90,5.991,6.182,-0.103,0.211
33.93,5.991,6.172,-0.098,0.137
33.96,5.996,6.182,-0.024,0.118
33.99,5.991,6.187,-0.029,0.170
34.02,5.986,6.191,-0.034,0.187
34.05,5.986,6.191,-0.039,0.167
34.08,5.986,6.172,-0.029,0.097
34.11,5.977,6.191,-0.029,0.222
34.14,5.986,6.182,-0.039,0.124
34.17,5.996,6.113,-0.044,-0.085
34.20,5.996,6.182,-0.034,0.258
34.23,5.996,6.187,-0.034,0.182
34.26,6.006,6.182,-0.034,0.111
34.29,5.991,6.182,-0.034,0.176
34.32,5.991,6.177,-0.054,0.151
34.35,5.981,6.182,-0.083,0.209
34.38,5.981,6.187,-0.039,0.160
34.41,5.991,6.177,-0.098,0.136
34.44,5.991,6.162,-0.034,0.068
34.47,5.991,6.177,-0.073,0.188
34.50,5.977,6.177,-0.073,0.202
34.53,5.981,6.177,-0.039,0.134
34.56,5.986,6.191,-0.029,0.172
34.59,5.996,6.182,-0.024,0.099
34.62,5.991,6.172,-0.029,0.122
34.65,5.996,6.187,-0.029,0.166
34.68,5.986,6.177,-0.020,0.145
34.71,5.996,6.138,-0.044,0.014
34.74,5.996,6.138,-0.029,0.084
34.77,5.996,6.187,-0.039,0.258
34.80,5.991,6.187,-0.098,0.220
34.83,5.962,6.187,-0.054,0.234
34.86,5.991,6.143,-0.044,-0.037
34.89,5.996,6.182,-0.049,0.194
34.92,5.991,6.182,-0.029,0.159
34.95,5.991,6.191,-0.034,0.182
34.98,5.991,6.177,-0.029,0.114
35.01,5.996,6.113,-0.029,-0.067
35.04,5.996,6.084,-0.044,-0.019
35.07,5.986,5.942,-0.039,-0.344
35.10,6.001,5.698,-0.068,-0.849
35.13,5.986,5.381,-0.293,-1.117
35.16,5.894,4.985,-1.006,-1.032
35.19,5.615,4.521,-1.660,-0.795
35.22,5.264,4.106,-2.026,-0.587
35.25,4.810,3.613,-2.202,-0.580
35.28,4.395,3.154,-2.280,-0.655
35.31,3.921,2.642,-2.324,-0.692
35.34,3.486,2.153,-2.510,-0.677
35.37,2.979,1.768,-2.554,-0.241
35.40,2.441,1.470,-2.544,0.244
35.43,1.958,1.260,-2.441,0.530
35.46,1.538,1.157,-2.046,0.695
35.49,1.182,1.167,-1.416,0.877
35.52,0.991,1.152,-0.479,0.301
35.55,0.962,1.152,-0.034,0.036
35.58,0.933,1.152,-0.024,0.208
35.61,0.952,1.152,-0.029,0.121
35.64,0.967,1.138,-0.044,0.069
35.67,0.928,1.147,-0.034,0.262
35.70,0.962,1.157,-0.029,0.112
35.73,0.967,1.157,-0.039,0.134
35.76,0.972,1.157,-0.029,0.125
35.79,0.981,1.138,-0.034,0.055
35.82,0.967,1.143,-0.029,0.165
35.85,0.947,1.147,-0.039,0.221
35.88,0.923,1.152,-0.024,0.248
35.91,0.962,1.157,-0.059,0.108
35.94,0.967,1.162,-0.034,0.131
35.97,0.967,1.172,-0.049,0.186
36.00,0.962,1.172,-0.034,0.172
36.03,0.903,1.138,-0.039,0.241
36.06,0.962,1.113,-0.034,-0.059
36.09,0.972,1.147,-0.039,0.159
36.12,0.967,1.147,-0.068,0.174
36.15,0.962,1.172,-0.024,0.213
36.18,0.962,1.157,-0.049,0.142
36.21,0.967,1.143,-0.029,0.081
36.24,0.952,1.138,-0.020,0.149
36.27,0.957,1.143,-0.024,0.146
36.30,0.952,1.157,-0.039,0.211
36.33,0.972,1.157,-0.029,0.105
36.36,0.967,1.143,-0.029,0.107
36.39,0.972,1.157,-0.024,0.157
36.42,0.967,1.147,-0.049,0.146
36.45,0.952,1.147,-0.034,0.179
36.48,0.879,1.162,-0.034,0.421
36.51,0.967,1.167,-0.029,0.006
36.54,0.952,1.152,-0.029,0.125
36.57,0.962,1.167,-0.029,0.163
36.60,0.967,1.152,-0.034,0.104
36.63,0.967,1.157,-0.044,0.157
36.66,0.962,1.157,-0.029,0.157
36.69,0.977,1.157,-0.034,0.111
36.72,0.967,1.147,-0.034,0.135
36.75,0.962,1.162,-0.029,0.195
36.78,0.977,1.172,-0.039,0.154
36.81,0.889,1.143,-0.083,0.355
36.84,0.967,1.157,-0.034,0.014
36.87,0.923,1.147,-0.029,0.221
36.90,0.962,1.143,-0.034,0.054
36.93,0.967,1.162,-0.039,0.170
36.96,0.977,1.162,-0.034,0.124
36.99,0.962,1.104,-0.024,0.002
37.02,0.962,1.108,-0.020,0.100
37.05,0.972,1.152,-0.054,0.233
37.08,0.967,1.162,-0.020,0.185
37.11,0.967,1.152,-0.029,0.133
37.14,0.972,1.152,-0.034,0.130
37.17,0.962,1.152,-0.034,0.168
37.20,0.977,1.147,-0.039,0.096
37.23,0.962,1.167,-0.020,0.217
37.26,0.967,1.118,-0.078,0.043
37.29,0.981,1.099,-0.034,-0.020
37.32,0.952,1.152,-0.029,0.316
37.35,0.962,1.152,-0.034,0.161
37.38,0.962,1.157,-0.039,0.168
37.41,0.957,1.147,-0.024,0.132
37.44,0.952,1.128,-0.034,0.106
37.47,0.913,1.152,-0.063,0.339
37.50,0.977,1.143,-0.029,-0.021
37.53,0.972,1.152,-0.039,0.149
37.56,0.977,1.133,-0.049,0.075
37.59,0.957,1.152,-0.039,0.226
37.62,0.972,1.157,-0.068,0.155
37.65,0.967,1.123,-0.049,0.051
37.68,0.967,1.143,-0.024,0.154
37.71,0.967,1.079,-0.059,-0.031
37.74,0.957,1.152,-0.093,0.338
37.77,0.918,1.152,-0.024,0.272
37.80,0.962,1.143,-0.024,0.037
37.83,0.972,1.143,-0.034,0.095
37.86,0.977,1.143,-0.044,0.117
37.89,0.967,1.147,-0.039,0.169
37.92,0.962,1.157,-0.034,0.188
37.95,0.967,1.157,-0.034,0.144
37.98,0.967,1.113,-0.098,0.053
38.01,0.962,1.152,-0.015,0.192
38.04,0.962,1.157,-0.068,0.201
38.07,0.972,1.172,-0.020,0.151
38.10,0.957,1.152,-0.073,0.170
38.13,0.957,1.133,-0.029,0.075
38.16,0.967,1.152,-0.039,0.159
38.19,0.967,1.152,-0.024,0.139
38.22,0.977,1.152,-0.063,0.136
38.25,0.952,1.143,-0.034,0.167
38.28,0.962,1.138,-0.034,0.108
38.31,0.972,1.167,-0.044,0.196
38.34,0.981,1.157,-0.049,0.106
38.37,0.918,1.138,-0.049,0.264
38.40,0.972,1.152,-0.049,0.073
38.43,0.977,1.143,-0.024,0.070
38.46,0.967,1.152,-0.039,0.184
38.49,0.967,1.152,-0.068,0.170
38.52,0.977,1.152,-0.034,0.104
38.55,0.938,1.147,-0.024,0.227
38.58,0.967,1.152,-0.024,0.101
38.61,0.957,1.157,-0.024,0.178
38.64,0.962,1.152,-0.034,0.135
38.67,0.972,1.147,-0.034,0.101
38.70,0.967,1.089,-0.034,-0.031
38.73,0.947,1.157,-0.015,0.323
38.76,0.962,1.147,-0.068,0.151
38.79,0.967,1.118,-0.044,0.033
38.82,0.957,1.162,-0.039,0.261
38.85,0.962,1.147,-0.029,0.115
38.88,0.933,1.157,-0.020,0.249
38.91,0.972,1.152,-0.029,0.061
38.94,0.972,1.147,-0.068,0.133
38.97,0.967,1.157,-0.073,0.187
39.00,0.952,1.147,-0.039,0.155
39.03,0.962,1.152,-0.034,0.135
39.06,0.977,1.152,-0.020,0.093
39.09,0.962,1.152,-0.034,0.179
39.12,0.947,1.167,-0.029,0.239
39.15,0.952,1.147,-0.039,0.116
39.18,0.967,1.152,-0.039,0.116
39.21,0.972,1.138,-0.029,0.075
39.24,0.967,1.152,-0.034,0.180
39.27,0.962,1.147,-0.029,0.148
39.30,0.894,1.157,-0.024,0.376
39.33,0.962,1.143,-0.044,-0.001
39.36,0.967,1.152,-0.044,0.128
39.39,0.952,1.157,-0.020,0.186
39.42,0.967,1.157,-0.059,0.142
39.45,0.947,1.138,-0.029,0.132
39.48,0.967,1.133,-0.029,0.071
39.51,0.962,1.152,-0.024,0.188
39.54,0.957,1.118,-0.049,0.081
39.57,0.967,1.157,-0.054,0.210
39.60,0.967,1.152,-0.034,0.136
39.63,0.962,1.167,-0.039,0.204
39.66,0.972,1.143,-0.034,0.063
39.69,0.962,1.157,-0.039,0.195
39.72,0.967,1.147,-0.020,0.105
39.75,0.967,1.079,-0.044,-0.059
39.78,0.938,1.143,-0.054,0.345
39.81,0.967,1.113,-0.029,0.008
39.84,0.972,1.138,-0.029,0.152
39.87,0.972,1.157,-0.020,0.186
39.90,0.952,1.113,-0.039,0.089
39.93,0.972,1.147,-0.029,0.157
39.96,0.942,1.147,-0.044,0.237
39.99,0.967,1.084,-0.059,-0.079
40.02,0.972,0.962,-0.034,-0.334
40.05,0.962,0.791,-0.073,-0.529
40.08,0.977,0.781,-0.244,-0.170
40.11,0.928,0.737,-0.234,-0.113
40.14,0.845,0.522,-0.107,-0.580
40.17,0.840,-0.239,-0.181,-2.523
40.20,0.806,-1.538,-0.962,-4.456
40.23,0.552,-3.047,-1.831,-5.425
40.26,0.049,-4.478,-2.637,-5.324
40.29,-0.498,-5.845,-3.354,-5.495
40.32,-1.250,-7.085,-4.043,-4.956
40.35,-2.065,-8.242,-4.648,-4.669
40.38,-3.027,-9.375,-5.225,-4.249
40.41,-4.146,-10.000,-5.776,-2.221
40.44,-5.366,-10.000,-6.279,0.700
40.47,-6.553,-10.000,-6.128,1.582
40.50,-7.651,-10.000,-4.482,1.292
40.53,-8.315,-10.000,-2.871,0.412
40.56,-8.823,-10.000,-2.075,0.462
40.59,-9.121,-10.000,-1.582,0.233
40.62,-9.424,-10.000,-1.211,0.395
40.65,-9.551,-10.000,-0.879,0.060
40.68,-9.678,-10.000,-0.698,0.120
40.71,-9.795,-10.000,-0.557,0.181
40.74,-9.854,-10.000,-0.420,0.074
40.77,-9.917,-10.000,-0.283,0.086
40.80,-9.932,-10.000,-0.068,-0.084
40.83,-9.927,-10.000,-0.078,-0.058
40.86,-9.941,-10.000,-0.029,-0.032
40.89,-9.922,-10.000,-0.063,-0.076
40.92,-9.927,-10.000,-0.039,-0.054
40.95,-9.980,-10.000,-0.044,0.114
40.98,-9.927,-10.000,-0.029,-0.154
41.01,-9.932,-10.000,-0.039,-0.051
41.04,-9.941,-10.000,-0.044,-0.014
41.07,-9.932,-10.000,-0.034,-0.068
41.10,-9.980,-10.000,-0.083,0.125
41.13,-9.937,-10.000,-0.063,-0.120
41.16,-9.932,-10.000,-0.029,-0.090
41.19,-9.937,-10.000,-0.044,-0.032
41.22,-10.000,-10.000,-0.078,0.172
41.25,-9.941,-10.000,-0.034,-0.158
41.28,-9.937,-10.000,-0.039,-0.074
41.31,-9.941,-10.000,-0.039,-0.034
41.34,-9.941,-10.000,-0.039,-0.037
41.37,-9.932,-10.000,-0.059,-0.055
41.40,-9.932,-10.000,-0.024,-0.066
41.43,-9.927,-10.000,-0.034,-0.060
41.46,-9.941,-10.000,-0.039,-0.005
41.49,-9.912,-10.000,-0.039,-0.119
41.52,-9.932,-10.000,-0.039,-0.013
41.55,-9.927,-10.000,-0.054,-0.045
41.58,-9.941,-10.000,-0.044,-0.008
41.61,-9.922,-10.000,-0.024,-0.102
41.64,-9.922,-10.000,-0.039,-0.056
41.67,-9.941,-10.000,-0.083,0.032
41.70,-9.937,-10.000,-0.044,-0.057
41.73,-9.951,-10.000,-0.054,0.006
41.76,-9.927,-10.000,-0.029,-0.110
41.79,-9.932,-10.000,-0.044,-0.039
41.82,-9.941,-10.000,-0.034,-0.020
41.85,-9.956,-10.000,-0.039,0.012
41.88,-9.946,-10.000,-0.049,-0.043
41.91,-9.937,-10.000,-0.044,-0.067
41.94,-9.985,-10.000,-0.083,0.124
41.97,-9.937,-10.000,-0.039,-0.147
42.00,-9.937,-10.000,-0.039,-0.063
42.03,-9.937,-10.000,-0.073,-0.025
42.06,-9.941,-10.000,-0.034,-0.043
42.09,-9.927,-10.000,-0.039,-0.081
42.12,-9.941,-10.000,-0.044,-0.009
42.15,-9.951,-10.000,-0.034,-0.008
42.18,-9.937,-10.000,-0.068,-0.050
42.21,-9.941,-10.000,-0.029,-0.049
42.24,-9.941,-10.000,-0.044,-0.033
42.27,-9.937,-10.000,-0.083,-0.028
42.30,-9.946,-10.000,-0.044,-0.028
42.33,-9.932,-10.000,-0.049,-0.074
42.36,-9.922,-10.000,-0.034,-0.088
42.39,-9.922,-10.000,-0.034,-0.060
42.42,-9.946,-10.000,-0.054,0.030
42.45,-9.951,-10.000,-0.063,0.001
42.48,-9.961,-10.000,-0.020,-0.019
42.51,-9.922,-10.000,-0.044,-0.127
42.54,-9.941,-10.000,-0.068,0.006
42.57,-9.951,-10.000,-0.039,-0.014
42.60,-9.937,-10.000,-0.054,-0.063
42.63,-9.937,-10.000,-0.088,-0.024
42.66,-9.932,-10.000,-0.068,-0.059
42.69,-10.000,-10.000,-0.073,0.163
42.72,-9.941,-10.000,-0.024,-0.164
42.75,-9.927,-10.000,-0.039,-0.100
42.78,-9.946,-10.000,-0.063,0.014
42.81,-9.937,-10.000,-0.039,-0.066
42.84,-9.941,-10.000,-0.044,-0.029
42.87,-9.971,-10.000,-0.034,0.046
42.90,-9.941,-9.907,-0.034,0.186
42.93,-9.971,-9.443,0.000,1.521
42.96,-9.941,-9.063,0.669,1.274
42.99,-9.805,-8.706,1.494,0.866
43.02,-9.443,-8.496,1.929,-0.062
43.05,-8.926,-8.330,1.909,-0.718
43.08,-8.594,-8.179,1.504,-0.314
43.11,-8.379,-8.013,0.903,0.220
43.14,-8.228,-7.944,0.610,0.082
43.17,-8.105,-7.900,0.454,-0.028
43.20,-8.008,-7.886,0.288,-0.086
43.23,-7.964,-7.896,0.186,-0.078
43.26,-7.944,-7.856,0.034,0.153
43.29,-7.939,-7.803,-0.054,0.278
43.32,-7.939,-7.729,-0.024,0.346
43.35,-7.930,-7.686,-0.010,0.292
43.38,-7.959,-7.612,-0.024,0.522
43.41,-7.920,-7.544,0.088,0.336
43.44,-7.905,-7.515,0.107,0.314
43.47,-7.886,-7.446,0.122,0.422
43.50,-7.822,-7.363,0.137,0.383
43.53,-7.808,-7.305,0.132,0.470
43.56,-7.769,-7.251,0.234,0.362
43.59,-7.695,-7.207,0.264,0.249
43.62,-7.651,-7.285,0.195,-0.014
43.65,-7.622,-7.217,0.127,0.352
43.68,-7.588,-7.261,0.054,0.108
43.71,-7.583,-7.227,-0.024,0.346
43.74,-7.607,-7.217,-0.020,0.386
43.77,-7.593,-7.212,-0.024,0.287
43.80,-7.578,-7.231,-0.034,0.192
43.83,-7.588,-7.217,-0.049,0.333
43.86,-7.573,-7.217,-0.083,0.272
43.89,-7.588,-7.217,-0.029,0.290
43.92,-7.578,-7.227,-0.068,0.249
43.95,-7.583,-7.227,-0.044,0.269
43.98,-7.583,-7.251,-0.083,0.223
44.01,-7.578,-7.256,-0.034,0.195
44.04,-7.593,-7.266,-0.044,0.257
44.07,-7.627,-7.207,-0.020,0.517
44.10,-7.607,-7.212,-0.010,0.279
44.13,-7.583,-7.222,-0.029,0.203
44.16,-7.578,-7.236,-0.039,0.208
44.19,-7.578,-7.222,-0.054,0.304
44.22,-7.598,-7.231,-0.059,0.313
44.25,-7.588,-7.300,-0.029,0.037
44.28,-7.583,-7.197,-0.049,0.489
44.31,-7.598,-7.227,-0.010,0.268
44.34,-7.607,-7.222,-0.005,0.318
44.37,-7.554,-7.217,0.010,0.140
44.40,-7.573,-7.246,-0.039,0.229
44.43,-7.559,-7.212,-0.024,0.297
44.46,-7.559,-7.217,-0.020,0.253
44.49,-7.588,-7.241,-0.034,0.281
44.52,-7.607,-7.212,-0.029,0.412
44.55,-7.559,-7.207,-0.010,0.180
44.58,-7.559,-7.222,-0.024,0.213
44.61,-7.554,-7.212,-0.029,0.265
44.64,-7.544,-7.212,-0.088,0.267
44.67,-7.534,-7.212,-0.054,0.213
44.70,-7.559,-7.202,-0.068,0.354
44.73,-7.549,-7.202,-0.112,0.290
44.76,-7.544,-7.207,-0.088,0.236
44.79,-7.544,-7.217,-0.029,0.195
44.82,-7.568,-7.251,-0.054,0.224
44.85,-7.554,-7.217,-0.034,0.289
44.88,-7.544,-7.202,-0.024,0.273
44.91,-7.554,-7.207,-0.024,0.277
44.94,-7.539,-7.227,-0.024,0.164
44.97,-7.578,-7.202,-0.034,0.419
45.00,-7.554,-7.236,-0.015,0.126
45.03,-7.534,-7.266,-0.015,0.071
45.06,-7.583,-7.197,-0.049,0.549
45.09,-7.544,-7.217,0.054,0.110
45.12,-7.505,-7.202,0.015,0.162
45.15,-7.559,-7.212,-0.103,0.414
45.18,-7.515,-7.217,-0.054,0.127
45.21,-7.515,-7.207,-0.044,0.234
45.24,-7.510,-7.251,-0.034,0.084
45.27,-7.529,-7.212,-0.029,0.349
45.30,-7.588,-7.241,-0.020,0.346
45.33,-7.549,-7.217,-0.034,0.244
45.36,-7.529,-7.246,-0.029,0.103
45.39,-7.529,-7.192,-0.063,0.376
45.42,-7.544,-7.275,-0.044,0.068
45.45,-7.515,-7.212,-0.044,0.283
45.48,-7.515,-7.207,-0.024,0.246
45.51,-7.515,-7.207,-0.083,0.272
45.54,-7.510,-7.212,-0.054,0.202
45.57,-7.500,-7.207,-0.034,0.199
45.60,-7.524,-7.202,0.005,0.284
45.63,-7.539,-7.188,-0.034,0.361
45.66,-7.510,-7.207,-0.034,0.141
45.69,-7.515,-7.202,-0.039,0.246
45.72,-7.520,-7.241,-0.024,0.130
45.75,-7.524,-7.207,-0.020,0.310
45.78,-7.524,-7.217,-0.029,0.231
45.81,-7.505,-7.212,-0.039,0.196
45.84,-7.515,-7.207,-0.024,0.255
45.87,-7.515,-7.207,-0.034,0.244
45.90,-7.510,-7.168,-0.049,0.349
45.93,-7.515,-7.207,-0.044,0.175
45.96,-7.510,-7.212,-0.049,0.199
45.99,-7.510,-7.202,-0.068,0.265
46.02,-7.588,-7.202,-0.054,0.471
46.05,-7.529,-7.246,-0.024,0.007
46.08,-7.520,-7.207,-0.054,0.280
46.11,-7.529,-7.231,-0.034,0.194
46.14,-7.515,-7.212,-0.024,0.230
46.17,-7.524,-7.212,-0.024,0.260
46.20,-7.510,-7.207,-0.034,0.219
46.23,-7.515,-7.212,-0.039,0.232
46.26,-7.534,-7.256,-0.083,0.186
46.29,-7.520,-7.207,-0.029,0.284
46.32,-7.520,-7.222,-0.029,0.204
46.35,-7.529,-7.202,-0.029,0.311
46.38,-7.524,-7.236,-0.029,0.145
46.41,-7.500,-7.202,-0.034,0.238
46.44,-7.544,-7.261,-0.024,0.181
46.47,-7.529,-7.217,-0.107,0.347
46.50,-7.510,-7.202,-0.054,0.223
46.53,-7.510,-7.246,-0.029,0.089
46.56,-7.524,-7.222,-0.083,0.329
46.59,-7.520,-7.241,-0.039,0.158
46.62,-7.495,-7.217,-0.024,0.194
46.65,-7.520,-7.207,-0.029,0.314
46.68,-7.510,-7.227,-0.059,0.184
46.71,-7.520,-7.256,-0.024,0.135
46.74,-7.510,-7.202,-0.039,0.329
46.77,-7.520,-7.236,-0.093,0.214
46.80,-7.520,-7.241,-0.024,0.168
46.83,-7.520,-7.217,-0.029,0.280
46.86,-7.515,-7.212,-0.034,0.244
46.89,-7.515,-7.217,-0.029,0.217
46.92,-7.510,-7.202,-0.010,0.243
46.95,-7.529,-7.202,-0.029,0.305
46.98,-7.510,-7.202,-0.034,0.205
47.01,-7.505,-7.217,-0.059,0.186
47.04,-7.529,-7.207,-0.034,0.305
47.07,-7.549,-7.207,-0.029,0.314
47.10,-7.515,-7.212,-0.034,0.157
47.13,-7.524,-7.217,-0.029,0.229
47.16,-7.520,-7.212,-0.044,0.243
47.19,-7.549,-7.227,-0.029,0.274
47.22,-7.495,-7.212,-0.029,0.134
47.25,-7.549,-7.231,-0.029,0.303
47.28,-7.515,-7.212,-0.029,0.211
47.31,-7.568,-7.197,-0.029,0.432
47.34,-7.539,-7.217,-0.054,0.181
47.37,-7.529,-7.212,-0.029,0.207
47.40,-7.593,-7.212,-0.078,0.455
47.43,-7.539,-7.217,-0.024,0.121
47.46,-7.520,-7.212,-0.024,0.177
47.49,-7.495,-7.212,-0.068,0.176
47.52,-7.524,-7.217,-0.054,0.278
47.55,-7.510,-7.212,-0.039,0.208
47.58,-7.510,-7.222,-0.083,0.222
47.61,-7.520,-7.212,-0.039,0.259
47.64,-7.500,-7.202,-0.034,0.209
47.67,-7.520,-7.212,-0.020,0.245
47.70,-7.520,-7.197,-0.029,0.286
47.73,-7.524,-7.231,-0.063,0.187
47.76,-7.515,-7.241,-0.039,0.147
47.79,-7.515,-7.207,-0.024,0.292
47.82,-7.510,-7.188,-0.049,0.304
47.85,-7.505,-7.246,-0.029,0.058
47.88,-7.505,-7.207,-0.034,0.291
47.91,-7.524,-7.207,-0.044,0.305
47.94,-7.515,-7.217,-0.020,0.184
47.97,-7.529,-7.207,-0.039,0.303
48.00,-7.515,-7.256,-0.068,0.086
48.03,-7.510,-7.202,-0.107,0.351
48.06,-7.510,-7.207,-0.034,0.209
48.09,-7.539,-7.271,-0.039,0.128
48.12,-7.534,-7.227,-0.044,0.312
48.15,-7.529,-7.207,-0.034,0.290
48.18,-7.529,-7.251,-0.039,0.127
48.21,-7.520,-7.212,-0.068,0.302
48.24,-7.573,-7.222,-0.034,0.365
48.27,-7.515,-7.275,-0.029,-0.052
48.30,-7.515,-7.217,-0.034,0.315
48.33,-7.524,-7.241,-0.054,0.214
48.36,-7.524,-7.217,-0.044,0.286
48.39,-7.529,-7.227,-0.034,0.227
48.42,-7.500,-7.212,-0.029,0.184
48.45,-7.544,-7.217,-0.024,0.327
48.48,-7.524,-7.227,-0.039,0.186
48.51,-7.520,-7.217,-0.034,0.232
48.54,-7.520,-7.202,-0.088,0.308
48.57,-7.520,-7.197,-0.034,0.245
48.60,-7.505,-7.212,-0.029,0.156
48.63,-7.515,-7.212,-0.063,0.260
48.66,-7.515,-7.217,-0.039,0.212
48.69,-7.515,-7.207,-0.039,0.255
48.72,-7.554,-7.212,-0.034,0.340
48.75,-7.520,-7.212,-0.034,0.175
48.78,-7.515,-7.202,-0.044,0.244
48.81,-7.515,-7.207,-0.039,0.224
48.84,-7.510,-7.217,-0.078,0.214
48.87,-7.520,-7.192,-0.044,0.310
48.90,-7.500,-7.212,-0.049,0.149
48.93,-7.510,-7.217,-0.034,0.214
48.96,-7.515,-7.207,-0.034,0.267
48.99,-7.515,-7.231,-0.044,0.175
49.02,-7.510,-7.197,-0.063,0.310
49.05,-7.529,-7.212,-0.024,0.248
49.08,-7.520,-7.241,-0.059,0.146
49.11,-7.510,-7.231,-0.039,0.192
49.14,-7.510,-7.217,-0.034,0.251
49.17,-7.500,-7.207,-0.015,0.218
49.20,-7.510,-7.197,-0.059,0.306
49.23,-7.500,-7.212,-0.054,0.180
49.26,-7.524,-7.212,-0.039,0.280
49.29,-7.578,-7.251,-0.034,0.289
49.32,-7.520,-7.266,-0.044,0.044
49.35,-7.515,-7.217,-0.039,0.295
49.38,-7.515,-7.246,-0.020,0.143
49.41,-7.510,-7.202,-0.034,0.318
49.44,-7.515,-7.285,-0.015,0.006
49.47,-7.544,-7.217,-0.098,0.483
49.50,-7.544,-7.285,-0.044,0.067
49.53,-7.524,-7.212,-0.049,0.338
49.56,-7.500,-7.241,-0.049,0.100
49.59,-7.505,-7.241,-0.073,0.210
49.62,-7.520,-7.261,-0.015,0.159
49.65,-7.500,-7.202,-0.029,0.315
49.68,-7.568,-7.207,-0.054,0.450
49.71,-7.500,-7.188,-0.068,0.176
49.74,-7.510,-7.207,-0.044,0.187
49.77,-7.520,-7.188,-0.034,0.306
49.80,-7.500,-7.202,-0.020,0.153
49.83,-7.505,-7.202,-0.024,0.229
49.86,-7.515,-7.207,-0.034,0.251
49.89,-7.505,-7.261,-0.029,0.045
49.92,-7.549,-7.183,-0.020,0.519
49.95,-7.500,-7.012,-0.020,0.692
49.98,-7.500,-6.816,0.044,0.982
50.01,-7.480,-6.431,0.508,1.422
50.04,-7.261,-5.767,1.284,1.720
50.07,-6.895,-4.868,2.065,2.214
50.10,-6.436,-3.970,2.861,2.252
50.13,-5.796,-3.198,3.540,1.575
50.16,-5.044,-2.461,4.194,1.012
50.19,-4.111,-1.826,4.561,0.136
50.22,-3.281,-1.318,4.551,-0.110
50.25,-2.271,-0.898,4.395,-1.069
50.28,-1.479,-0.581,3.452,-0.773
50.31,-0.928,-0.361,2.124,-0.229
50.34,-0.620,-0.269,1.450,-0.201
50.37,-0.361,-0.259,1.089,-0.534
50.40,-0.205,-0.249,0.703,-0.384
50.43,-0.078,-0.249,0.181,-0.255
50.46,-0.063,-0.254,-0.054,-0.093
50.49,-0.063,-0.259,-0.049,-0.144
50.52,-0.059,-0.239,-0.029,-0.108
50.55,-0.054,-0.254,-0.020,-0.191
50.58,-0.059,-0.283,-0.024,-0.226
50.61,-0.063,-0.254,-0.024,-0.075
50.64,-0.054,-0.244,-0.059,-0.106
50.67,-0.054,-0.264,-0.093,-0.166
50.70,-0.054,-0.254,-0.088,-0.122
50.73,-0.063,-0.259,-0.034,-0.152
50.76,-0.063,-0.259,-0.029,-0.146
50.79,-0.054,-0.259,-0.034,-0.169
50.82,-0.068,-0.249,-0.034,-0.080
50.85,-0.088,-0.249,-0.020,-0.070
50.88,-0.049,-0.303,-0.034,-0.378
50.91,-0.063,-0.259,-0.049,-0.039
50.94,-0.049,-0.249,-0.034,-0.143
50.97,-0.054,-0.225,-0.088,-0.024
51.00,-0.049,-0.156,-0.024,0.055
51.03,-0.059,0.063,-0.049,0.653
51.06,-0.059,0.527,0.020,1.560
51.09,-0.044,1.162,0.781,2.065
51.12,0.264,1.821,1.748,1.517
51.15,0.659,2.378,2.480,1.072
51.18,1.265,2.842,3.047,0.183
51.21,1.865,3.208,3.081,-0.106
51.24,2.529,3.462,2.954,-0.740
51.27,3.022,3.628,2.402,-0.593
51.30,3.486,3.706,1.494,-0.656
51.33,3.633,3.701,0.801,-0.217
51.36,3.755,3.696,0.317,-0.189
51.39,3.779,3.706,0.024,0.021
51.42,3.774,3.706,-0.054,0.019
51.45,3.789,3.711,-0.024,-0.078
51.48,3.784,3.696,-0.039,-0.080
51.51,3.774,3.726,-0.039,0.053
51.54,3.784,3.706,-0.049,-0.096
51.57,3.794,3.721,-0.029,-0.057
51.60,3.784,3.696,-0.024,-0.099
51.63,3.784,3.701,-0.024,-0.055
51.66,3.774,3.687,-0.039,-0.064
51.69,3.774,3.711,-0.029,0.007
51.72,3.774,3.677,-0.029,-0.136
51.75,3.779,3.711,-0.034,0.009
51.78,3.789,3.706,-0.049,-0.070
51.81,3.735,3.711,-0.024,0.103
51.84,3.809,3.716,-0.029,-0.193
51.87,3.735,3.691,-0.020,0.050
51.90,3.779,3.716,-0.078,-0.037
51.93,3.779,3.711,-0.039,-0.074
51.96,3.774,3.696,-0.073,-0.060
51.99,3.789,3.706,-0.034,-0.088
52.02,3.774,3.726,-0.029,0.036
52.05,3.789,3.701,-0.024,-0.139
52.08,3.774,3.711,-0.034,0.002
52.11,3.774,3.652,-0.024,-0.215
52.14,3.779,3.716,-0.039,0.071
52.17,3.730,3.682,-0.029,0.019
52.20,3.779,3.726,-0.024,-0.040
52.23,3.799,3.716,-0.020,-0.128
52.26,3.779,3.711,-0.010,-0.035
52.29,3.726,3.711,-0.024,0.123
52.32,3.779,3.706,-0.034,-0.151
52.35,3.794,3.677,-0.034,-0.202
52.38,3.789,3.701,-0.029,-0.022
52.41,3.779,3.706,-0.024,-0.013
52.44,3.774,3.711,-0.034,-0.008
52.47,3.784,3.716,-0.029,-0.053
52.50,3.765,3.735,-0.029,0.069
52.53,3.735,3.706,-0.020,-0.006
52.56,3.794,3.716,-0.020,-0.163
52.59,3.789,3.721,-0.020,-0.048
52.62,3.794,3.701,-0.015,-0.124
52.65,3.774,3.706,-0.039,0.009
52.68,3.794,3.696,-0.034,-0.125
52.71,3.774,3.711,-0.029,0.020
52.74,3.784,3.711,-0.029,-0.060
52.77,3.784,3.706,-0.029,-0.067
52.80,3.770,3.711,-0.029,0.002
52.83,3.755,3.696,-0.088,0.004
52.86,3.779,3.716,-0.063,-0.053
52.89,3.774,3.711,-0.029,-0.062
52.92,3.789,3.706,-0.024,-0.108
52.95,3.779,3.706,-0.044,-0.028
52.98,3.779,3.691,-0.054,-0.082
53.01,3.779,3.706,-0.029,-0.033
53.04,3.779,3.721,-0.020,-0.009
53.07,3.779,3.672,-0.020,-0.181
53.10,3.779,3.628,-0.044,-0.216
53.13,3.804,3.696,-0.063,0.015
53.16,3.765,3.711,-0.020,0.081
53.19,3.779,3.711,-0.024,-0.055
53.22,3.784,3.701,-0.024,-0.093
53.25,3.789,3.711,-0.010,-0.060
53.28,3.779,3.716,-0.103,0.042
53.31,3.779,3.701,-0.029,-0.105
53.34,3.789,3.711,0.000,-0.082
53.37,3.784,3.711,-0.029,-0.031
53.40,3.784,3.706,-0.063,-0.041
53.43,3.779,3.701,-0.024,-0.071
53.46,3.735,3.711,-0.039,0.112
53.49,3.779,3.657,-0.039,-0.281
53.52,3.770,3.691,-0.034,0.004
53.55,3.765,3.701,-0.020,-0.007
53.58,3.779,3.711,-0.024,-0.049
53.61,3.701,3.721,-0.024,0.216
53.64,3.760,3.701,-0.029,-0.174
53.67,3.716,3.711,-0.044,0.104
53.70,3.784,3.706,-0.059,-0.188
53.73,3.774,3.696,-0.044,-0.086
53.76,3.770,3.721,-0.020,0.014
53.79,3.740,3.706,-0.044,0.035
53.82,3.774,3.716,-0.029,-0.090
53.85,3.770,3.701,-0.029,-0.079
53.88,3.794,3.682,-0.083,-0.153
53.91,3.726,3.711,-0.029,0.173
53.94,3.765,3.716,-0.020,-0.079
53.97,3.799,3.716,-0.024,-0.142
54.00,3.779,3.643,-0.034,-0.231
54.03,3.784,3.711,-0.034,0.066
54.06,3.774,3.701,-0.029,-0.029
54.09,3.770,3.711,-0.034,0.001
54.12,3.765,3.696,-0.044,-0.054
54.15,3.784,3.687,-0.029,-0.143
54.18,3.774,3.716,-0.029,0.033
54.21,3.784,3.706,-0.029,-0.084
54.24,3.721,3.721,-0.029,0.174
54.27,3.794,3.701,-0.034,-0.237
54.30,3.789,3.706,-0.039,-0.067
54.33,3.774,3.706,-0.029,-0.020
54.36,3.784,3.662,-0.020,-0.209
54.39,3.770,3.716,-0.039,0.104
54.42,3.760,3.706,-0.024,-0.015
54.45,3.774,3.691,-0.039,-0.111
54.48,3.779,3.701,-0.029,-0.059
54.51,3.784,3.711,-0.024,-0.043
54.54,3.784,3.701,-0.020,-0.082
54.57,3.774,3.706,-0.044,-0.005
54.60,3.770,3.711,-0.024,-0.019
54.63,3.730,3.716,-0.029,0.099
54.66,3.774,3.696,-0.029,-0.176
54.69,3.770,3.716,-0.068,0.018
54.72,3.770,3.701,-0.039,-0.082
54.75,3.750,3.711,-0.020,0.023
54.78,3.784,3.721,-0.020,-0.090
54.81,3.770,3.706,-0.024,-0.051
54.84,3.779,3.706,-0.034,-0.069
54.87,3.784,3.711,-0.029,-0.057
54.90,3.784,3.716,-0.029,-0.037
54.93,3.740,3.721,-0.024,0.099
54.96,3.716,3.706,-0.020,0.037
54.99,3.779,3.701,-0.034,-0.192
55.02,3.789,3.696,-0.034,-0.125
55.05,3.779,3.677,-0.024,-0.112
55.08,3.779,3.701,-0.024,-0.008
55.11,3.765,3.696,-0.054,0.001
55.14,3.779,3.677,-0.049,-0.140
55.17,3.789,3.726,-0.034,0.025
55.20,3.774,3.706,-0.024,-0.050
55.23,3.755,3.716,-0.024,0.040
55.26,3.774,3.711,-0.029,-0.083
55.29,3.784,3.687,-0.034,-0.151
55.32,3.765,3.691,-0.039,-0.008
55.35,3.804,3.716,-0.020,-0.097
55.38,3.774,3.711,-0.024,0.006
55.41,3.745,3.706,-0.039,0.048
55.44,3.774,3.706,-0.054,-0.088
55.47,3.789,3.691,-0.039,-0.149
55.50,3.789,3.716,-0.020,-0.022
55.53,3.784,3.696,-0.034,-0.081
55.56,3.784,3.696,-0.029,-0.068
55.59,3.779,3.711,-0.024,-0.007
55.62,3.779,3.657,-0.044,-0.189
55.65,3.770,3.716,-0.044,0.099
55.68,3.789,3.706,-0.020,-0.110
55.71,3.779,3.721,-0.034,0.013
55.74,3.779,3.716,-0.015,-0.055
55.77,3.770,3.706,-0.034,-0.036
55.80,3.774,3.691,-0.034,-0.100
55.83,3.770,3.672,-0.029,-0.113
55.86,3.799,3.706,-0.029,-0.063
55.89,3.774,3.721,-0.024,0.050
55.92,3.779,3.706,-0.039,-0.069
55.95,3.770,3.706,-0.059,-0.012
55.98,3.750,3.711,-0.049,0.034
56.01,3.760,3.706,-0.034,-0.064
56.04,3.779,3.701,-0.068,-0.094
56.07,3.779,3.706,-0.024,-0.069
56.10,3.779,3.721,-0.024,-0.011
56.13,3.789,3.711,-0.020,-0.096
56.16,3.784,3.706,-0.020,-0.064
56.19,3.794,3.706,-0.029,-0.081
56.22,3.765,3.701,-0.010,-0.004
56.25,3.789,3.711,-0.029,-0.070
56.28,3.779,3.701,-0.054,-0.043
56.31,3.784,3.672,-0.029,-0.166
56.34,3.779,3.701,-0.020,0.000
56.37,3.789,3.677,-0.024,-0.144
56.40,3.784,3.643,-0.010,-0.190
56.43,3.774,3.706,-0.029,0.110
56.46,3.784,3.696,-0.034,-0.071
56.49,3.730,3.696,-0.024,0.092
56.52,3.809,3.701,-0.020,-0.222
56.55,3.770,3.711,-0.034,0.049
56.58,3.794,3.706,-0.024,-0.115
56.61,3.774,3.701,-0.029,-0.026
56.64,3.784,3.706,-0.034,-0.057
56.67,3.730,3.711,-0.034,0.122
56.70,3.779,3.696,-0.078,-0.147
56.73,3.779,3.711,-0.029,-0.055
56.76,3.774,3.696,-0.029,-0.078
56.79,3.765,3.716,-0.024,0.026
56.82,3.779,3.691,-0.020,-0.141
56.85,3.784,3.701,-0.034,-0.055
56.88,3.779,3.701,-0.024,-0.048
56.91,3.789,3.701,-0.015,-0.089
56.94,3.784,3.706,-0.029,-0.031
56.97,3.774,3.691,-0.039,-0.058
57.00,3.735,3.696,-0.010,0.057
57.03,3.779,3.696,-0.034,-0.128
57.06,3.774,3.721,-0.034,0.017
57.09,3.745,3.716,-0.068,0.069
57.12,3.770,3.706,-0.034,-0.119
57.15,3.770,3.716,-0.039,-0.025
57.18,3.784,3.706,-0.015,-0.121
57.21,3.784,3.623,-0.039,-0.304
57.24,3.794,3.721,-0.059,0.123
57.27,3.770,3.682,-0.063,-0.053
57.30,3.784,3.696,-0.034,-0.073
57.33,3.770,3.682,-0.039,-0.060
57.36,3.784,3.706,-0.029,-0.037
57.39,3.779,3.706,-0.024,-0.039
57.42,3.789,3.672,-0.024,-0.181
57.45,3.784,3.696,-0.039,-0.007
57.48,3.784,3.706,-0.029,-0.026
57.51,3.779,3.711,-0.034,-0.016
57.54,3.779,3.701,-0.024,-0.075
57.57,3.779,3.706,-0.034,-0.039
57.60,3.726,3.711,-0.024,0.122
57.63,3.779,3.711,-0.029,-0.140
57.66,3.779,3.711,-0.029,-0.065
57.69,3.779,3.701,-0.044,-0.071
57.72,3.779,3.706,-0.034,-0.047
57.75,3.770,3.687,-0.044,-0.073
57.78,3.784,3.716,-0.024,-0.027
57.81,3.770,3.706,-0.059,-0.008
57.84,3.779,3.706,-0.034,-0.077
57.87,3.784,3.701,-0.015,-0.096
57.90,3.770,3.726,-0.015,0.050
57.93,3.765,3.711,-0.020,-0.041
57.96,3.770,3.706,-0.029,-0.062
57.99,3.784,3.657,-0.024,-0.240
58.02,3.740,3.701,-0.054,0.160
58.05,3.789,3.711,-0.024,-0.120
58.08,3.779,3.706,-0.034,-0.047
58.11,3.779,3.667,-0.024,-0.172
58.14,3.794,3.691,-0.024,-0.070
58.17,3.774,3.696,-0.088,0.039
58.20,3.774,3.667,-0.029,-0.152
58.23,3.740,3.721,-0.024,0.169
58.26,3.784,3.701,-0.024,-0.165
58.29,3.779,3.706,-0.029,-0.048
58.32,3.779,3.701,-0.024,-0.068
58.35,3.770,3.706,-0.029,-0.011
58.38,3.779,3.716,-0.039,-0.031
58.41,3.784,3.730,-0.029,-0.016
58.44,3.745,3.706,-0.029,0.012
58.47,3.774,3.706,-0.034,-0.102
58.50,3.779,3.696,-0.034,-0.101
58.53,3.779,3.716,-0.034,-0.007
58.56,3.774,3.711,-0.029,-0.038
58.59,3.799,3.691,-0.015,-0.183
58.62,3.770,3.696,-0.039,0.018
58.65,3.730,3.657,-0.029,-0.042
58.68,3.750,3.726,-0.029,0.098
58.71,3.789,3.701,-0.029,-0.182
58.74,3.784,3.711,-0.020,-0.048
58.77,3.789,3.716,-0.039,-0.039
58.80,3.779,3.691,-0.034,-0.094
58.83,3.784,3.711,-0.029,-0.026
58.86,3.779,3.716,-0.044,-0.008
58.89,3.721,3.701,-0.049,0.100
58.92,3.745,3.691,-0.029,-0.100
58.95,3.779,3.711,-0.015,-0.101
58.98,3.779,3.716,-0.044,-0.027
59.01,3.774,3.706,-0.088,-0.027
59.04,3.789,3.711,-0.020,-0.106
59.07,3.784,3.706,-0.029,-0.060
59.10,3.774,3.696,-0.034,-0.052
59.13,3.779,3.618,-0.029,-0.305
59.16,3.765,3.677,-0.054,0.080
59.19,3.779,3.638,-0.088,-0.171
59.22,3.774,3.691,-0.029,0.032
59.25,3.779,3.677,-0.029,-0.098
59.28,3.774,3.701,-0.029,0.010
59.31,3.784,3.696,-0.068,-0.059
59.34,3.770,3.696,-0.044,-0.027
59.37,3.774,3.706,-0.039,-0.032
59.40,3.774,3.706,-0.024,-0.052
59.43,3.774,3.687,-0.015,-0.113
59.46,3.730,3.696,-0.034,0.099
59.49,3.774,3.706,-0.029,-0.102
59.52,3.784,3.706,-0.034,-0.084
59.55,3.760,3.691,-0.039,-0.027
59.58,3.770,3.711,-0.039,-0.013
59.61,3.779,3.706,-0.044,-0.074
59.64,3.696,3.706,-0.039,0.193
59.67,3.774,3.647,-0.029,-0.367
59.70,3.789,3.706,-0.107,0.033
59.73,3.765,3.691,-0.073,-0.022
59.76,3.784,3.652,-0.020,-0.247
59.79,3.784,3.706,-0.049,0.052
59.82,3.784,3.701,-0.039,-0.051
59.85,3.784,3.721,-0.029,-0.003
59.88,3.779,3.745,-0.029,0.053
59.91,3.779,3.784,-0.024,0.108
59.94,3.760,3.779,-0.020,0.068
59.97,3.789,3.794,-0.029,-0.010
60.00,3.774,3.779,-0.024,0.001
60.03,3.735,3.853,-0.020,0.340
60.06,3.779,3.970,0.010,0.343
60.09,3.774,4.194,0.039,0.853
60.12,3.779,4.443,0.166,1.074
60.15,3.853,4.775,0.718,1.039
60.18,4.053,5.068,1.274,0.620
60.21,4.390,5.420,1.538,0.466
60.24,4.688,5.825,1.602,0.811
60.27,4.976,6.245,1.646,1.022
60.30,5.410,6.646,2.017,0.443
60.33,5.835,7.046,2.134,0.444
60.36,6.318,7.295,2.124,-0.138
60.39,6.719,7.505,1.982,-0.183
60.42,7.129,7.554,1.816,-0.787
60.45,7.485,7.554,1.201,-0.821
60.48,7.612,7.559,0.352,-0.124
60.51,7.593,7.563,-0.112,0.252
60.54,7.622,7.563,-0.054,-0.077
60.57,7.617,7.554,-0.024,-0.076
60.60,7.612,7.563,-0.034,-0.001
60.63,7.573,7.568,-0.020,0.098
60.66,7.617,7.559,-0.024,-0.139
60.69,7.627,7.539,-0.029,-0.145
60.72,7.617,7.490,-0.059,-0.178
60.75,7.617,7.427,-0.049,-0.301
60.78,7.607,7.349,-0.044,-0.377
60.81,7.612,7.324,-0.161,-0.243
60.84,7.642,7.314,-0.151,-0.325
60.87,7.578,7.295,-0.210,-0.076
60.90,7.588,7.241,-0.151,-0.386
60.93,7.549,7.173,-0.117,-0.375
60.96,7.559,7.085,-0.137,-0.568
60.99,7.524,6.938,-0.239,-0.657
61.02,7.417,6.787,-0.459,-0.454
61.05,7.305,6.572,-0.586,-0.645
61.08,7.197,6.455,-0.767,-0.419
61.11,7.051,6.348,-0.791,-0.305
61.14,6.890,6.235,-0.825,-0.221
61.17,6.670,6.001,-0.811,-0.390
61.20,6.567,5.972,-0.820,-0.157
61.23,6.436,5.806,-0.752,-0.434
61.26,6.279,5.654,-0.698,-0.392
61.29,6.089,5.537,-0.703,-0.147
61.32,6.001,5.342,-0.669,-0.619
61.35,5.879,5.205,-0.737,-0.442
61.38,5.625,5.005,-0.913,-0.138
61.41,5.557,4.951,-0.947,-0.226
61.44,5.376,4.741,-0.859,-0.435
61.47,5.205,4.683,-0.806,-0.060
61.50,5.010,4.570,-0.698,-0.044
61.53,4.932,4.448,-0.571,-0.397
61.56,4.805,4.316,-0.513,-0.351
61.59,4.668,4.141,-0.571,-0.384
61.62,4.629,4.067,-0.620,-0.398
61.65,4.502,3.965,-0.684,-0.231
61.68,4.351,3.892,-0.688,-0.049
61.71,4.229,3.867,-0.557,0.011
61.74,4.131,3.813,-0.396,-0.113
61.77,4.082,3.784,-0.200,-0.224
61.80,4.067,3.789,-0.083,-0.211
61.83,4.033,3.799,-0.024,-0.103
61.86,4.019,4.077,-0.034,0.727
61.89,4.072,4.385,0.132,0.847
61.92,4.067,4.692,0.386,1.126
61.95,4.111,4.966,0.913,0.926
61.98,4.512,5.073,1.509,-0.648
62.01,4.771,5.093,1.504,-0.689
62.04,4.971,5.093,0.767,-0.283
62.07,5.122,5.127,0.229,-0.105
62.10,5.142,5.205,0.010,0.262
62.13,5.137,5.332,-0.015,0.499
62.16,5.132,5.527,0.044,0.784
62.19,5.161,5.723,0.278,0.746
62.22,5.264,5.850,0.518,0.382
62.25,5.430,5.981,0.615,0.205
62.28,5.474,6.069,0.630,0.421
62.31,5.640,6.162,0.571,0.182
62.34,5.688,6.294,0.518,0.562
62.37,5.850,6.479,0.532,0.478
62.40,5.981,6.675,0.547,0.591
62.43,6.099,6.860,0.605,0.639
62.46,6.206,7.012,0.698,0.588
62.49,6.396,7.095,0.820,0.122
62.52,6.528,7.236,0.825,0.371
62.55,6.729,7.285,0.771,-0.022
62.58,6.851,7.407,0.688,0.287
62.61,6.992,7.539,0.552,0.361
62.64,7.119,7.700,0.483,0.478
62.67,7.178,7.866,0.479,0.711
62.70,7.344,8.013,0.591,0.372
62.73,7.446,8.052,0.679,0.162
62.76,7.607,8.052,0.630,-0.140
62.79,7.725,8.022,0.552,-0.230
62.82,7.822,8.018,0.352,-0.121
62.85,7.871,7.944,0.146,-0.192
62.88,7.881,7.764,-0.024,-0.481
62.91,7.842,7.520,-0.132,-0.714
62.94,7.871,7.163,-0.459,-1.281
62.97,7.754,6.768,-1.187,-1.024
63.00,7.446,6.455,-1.860,-0.265
63.03,7.021,6.138,-2.002,-0.017
63.06,6.665,5.830,-1.938,-0.185
63.09,6.294,5.615,-1.758,0.055
63.12,5.923,5.439,-1.611,0.313
63.15,5.664,5.288,-1.431,0.180
63.18,5.386,5.156,-1.230,0.301
63.21,5.151,5.015,-0.933,0.170
63.24,5.005,4.858,-0.674,-0.121
63.27,4.902,4.717,-0.547,-0.225
63.30,4.824,4.580,-0.435,-0.334
63.33,4.761,4.424,-0.454,-0.428
63.36,4.668,4.268,-0.483,-0.406
63.39,4.575,4.102,-0.591,-0.419
63.42,4.443,3.911,-0.708,-0.402
63.45,4.331,3.784,-0.747,-0.335
63.48,4.170,3.696,-0.684,-0.124
63.51,4.048,3.643,-0.571,-0.089
63.54,3.892,3.564,-0.444,-0.034
63.57,3.872,3.481,-0.332,-0.408
63.60,3.838,3.364,-0.283,-0.554
63.63,3.779,3.188,-0.410,-0.636
63.66,3.691,3.018,-0.635,-0.547
63.69,3.550,2.944,-0.854,-0.101
63.72,3.374,2.969,-0.864,0.326
63.75,3.193,3.115,-0.645,0.775
63.78,3.105,3.315,-0.186,0.774
63.81,3.101,3.579,0.327,0.801
63.84,3.154,3.804,0.630,0.739
63.87,3.364,3.960,0.859,0.163
63.90,3.521,4.111,0.908,0.243
63.93,3.691,4.316,0.806,0.458
63.96,3.853,4.580,0.747,0.713
63.99,4.014,4.907,0.811,0.949
64.02,4.155,5.234,1.133,0.992
64.05,4.482,5.581,1.626,0.473
64.08,4.819,5.918,1.787,0.462
64.11,5.254,6.235,1.782,0.188
64.14,5.576,6.514,1.719,0.319
64.17,5.918,6.787,1.616,0.276
64.20,6.348,6.987,1.533,-0.256
64.23,6.582,7.085,1.440,-0.206
64.26,6.831,7.222,1.240,-0.129
64.29,7.031,7.344,0.991,-0.025
64.32,7.266,7.432,0.737,-0.224
64.35,7.432,7.510,0.596,-0.212
64.38,7.515,7.510,0.396,-0.196
64.41,7.534,7.500,0.171,-0.043
64.44,7.588,7.505,0.049,-0.123
64.47,7.607,7.485,-0.073,-0.124
64.50,7.593,7.485,-0.044,-0.063
64.53,7.593,7.373,-0.088,-0.382
64.56,7.598,7.124,-0.088,-0.959
64.59,7.607,6.782,-0.479,-1.286
64.62,7.461,6.450,-1.245,-0.792
64.65,7.124,6.123,-1.719,-0.302
64.68,6.782,5.835,-1.875,-0.200
64.71,6.436,5.615,-1.758,-0.073
64.74,6.074,5.410,-1.631,0.097
64.77,5.781,5.215,-1.455,0.004
64.80,5.493,5.020,-1.387,0.073
64.83,5.273,4.897,-1.201,0.078
64.86,5.005,4.604,-1.011,-0.253
64.89,4.844,4.390,-0.903,-0.395
64.92,4.668,4.185,-0.908,-0.328
64.95,4.497,4.063,-0.938,-0.083
64.98,4.316,3.965,-0.884,0.052
65.01,4.146,3.838,-0.703,-0.071
65.04,4.009,3.760,-0.488,-0.068
65.07,3.955,3.657,-0.410,-0.298
65.10,3.892,3.501,-0.308,-0.529
65.13,3.794,3.389,-0.376,-0.306
65.16,3.760,3.340,-0.483,-0.239
65.19,3.677,3.262,-0.464,-0.239
65.22,3.579,3.315,-0.474,0.219
65.25,3.506,3.345,-0.386,0.197
65.28,3.447,3.447,-0.229,0.379
65.31,3.403,3.696,-0.059,0.880
65.34,3.438,3.857,0.205,0.581
65.37,3.442,4.004,0.435,0.631
65.40,3.560,4.194,0.640,0.508
65.43,3.696,4.443,0.742,0.681
65.46,3.853,4.697,0.820,0.741
65.49,4.043,4.976,0.972,0.730
65.52,4.282,5.176,1.113,0.387
65.55,4.521,5.420,1.250,0.413
65.58,4.741,5.576,1.230,0.293
65.61,4.966,5.693,1.162,0.131
65.64,5.273,5.884,1.050,0.039
65.67,5.479,6.133,0.933,0.450
65.70,5.635,6.377,0.894,0.658
65.73,5.806,6.577,0.981,0.505
65.76,6.035,6.729,1.030,0.182
65.79,6.284,6.836,0.967,-0.058
65.82,6.479,6.929,0.884,-0.054
65.85,6.616,7.026,0.752,0.115
65.88,6.763,7.207,0.610,0.366
65.91,6.870,7.310,0.508,0.313
65.94,6.978,7.388,0.498,0.183
65.97,7.085,7.471,0.396,0.211
66.00,7.153,7.554,0.269,0.346
66.03,7.212,7.642,0.161,0.430
66.06,7.256,7.720,0.195,0.406
66.09,7.271,7.837,0.176,0.656
66.12,7.358,7.935,0.293,0.409
66.15,7.446,8.018,0.405,0.310
66.18,7.524,8.081,0.405,0.312
66.21,7.612,8.105,0.420,0.149
66.24,7.642,8.066,0.347,0.114
66.27,7.744,7.949,0.259,-0.370
66.30,7.783,7.783,0.039,-0.465
66.33,7.793,7.598,-0.220,-0.528
66.36,7.778,7.397,-0.396,-0.648
66.39,7.681,7.163,-0.635,-0.577
66.42,7.539,6.924,-0.840,-0.520
66.45,7.373,6.709,-0.933,-0.463
66.48,7.144,6.528,-0.986,-0.200
66.51,6.953,6.333,-0.962,-0.320
66.54,6.797,6.118,-0.957,-0.499
66.57,6.572,5.928,-1.001,-0.263
66.60,6.416,5.742,-1.021,-0.395
66.63,6.172,5.527,-0.957,-0.311
66.66,6.001,5.313,-0.923,-0.486
66.69,5.825,5.005,-0.981,-0.760
66.72,5.630,4.663,-1.216,-0.825
66.75,5.293,4.375,-1.616,-0.213
66.78,4.956,4.233,-1.611,0.184
66.81,4.722,4.126,-1.494,0.107
66.84,4.453,3.984,-1.372,0.151
66.87,4.175,3.877,-1.162,0.300
66.90,3.955,3.823,-0.913,0.369
66.93,3.813,3.730,-0.679,0.110
66.96,3.677,3.657,-0.464,0.115
66.99,3.633,3.647,-0.342,0.096
67.02,3.604,3.623,-0.225,0.013
67.05,3.579,3.662,-0.112,0.164
67.08,3.569,3.701,-0.020,0.187
67.11,3.574,3.706,-0.020,0.119
67.14,3.569,3.701,-0.029,0.111
67.17,3.555,3.701,-0.010,0.137
67.20,3.569,3.711,-0.024,0.111
67.23,3.569,3.750,-0.059,0.248
67.26,3.579,3.960,-0.029,0.748
67.29,3.569,4.248,0.161,1.161
67.32,3.564,4.517,0.576,1.191
67.35,3.789,4.751,1.367,0.295
67.38,4.131,4.971,1.514,0.018
67.41,4.453,5.186,1.387,0.080
67.44,4.678,5.366,1.309,0.204
67.47,4.951,5.635,1.162,0.370
67.50,5.210,5.928,1.064,0.506
67.53,5.425,6.230,1.040,0.682
67.56,5.581,6.523,1.221,0.797
67.59,5.894,6.748,1.382,0.218
67.62,6.211,6.904,1.396,-0.102
67.65,6.489,7.026,1.274,-0.167
67.68,6.709,7.144,1.128,-0.084
67.71,6.919,7.217,0.933,-0.184
67.74,7.041,7.241,0.703,-0.125
67.77,7.246,7.300,0.459,-0.282
67.80,7.314,7.324,0.283,-0.106
67.83,7.334,7.368,0.068,0.153
67.86,7.373,7.544,-0.039,0.517
67.89,7.339,7.666,0.029,0.638
67.92,7.378,7.725,0.088,0.344
67.95,7.427,7.739,0.176,0.111
67.98,7.378,7.725,0.122,0.323
68.01,7.485,7.715,0.083,-0.070
68.04,7.505,7.754,0.049,0.193
68.07,7.520,7.764,-0.020,0.208
68.10,7.441,7.769,-0.044,0.454
68.13,7.510,7.656,0.034,-0.296
68.16,7.510,7.393,0.005,-0.749
68.19,7.524,7.021,-0.327,-1.179
68.22,7.446,6.709,-0.977,-0.812
68.25,7.124,6.455,-1.514,0.040
68.28,6.870,6.289,-1.602,0.105
68.31,6.587,6.187,-1.455,0.319
68.34,6.250,6.011,-1.240,0.353
68.37,6.074,5.869,-0.977,0.020
68.40,5.923,5.698,-0.762,-0.189
68.43,5.835,5.586,-0.571,-0.269
68.46,5.703,5.347,-0.566,-0.460
68.49,5.625,5.132,-0.625,-0.613
68.52,5.474,4.912,-0.815,-0.434
68.55,5.283,4.746,-0.879,-0.215
68.58,5.093,4.614,-0.820,-0.119
68.61,4.971,4.478,-0.708,-0.324
68.64,4.849,4.351,-0.688,-0.302
68.67,4.692,4.258,-0.669,-0.098
68.70,4.590,4.150,-0.640,-0.232
68.73,4.482,4.058,-0.596,-0.216
68.76,4.395,3.911,-0.518,-0.449
68.79,4.297,3.770,-0.518,-0.450
68.82,4.170,3.584,-0.566,-0.491
68.85,4.077,3.408,-0.591,-0.616
68.88,3.936,3.232,-0.728,-0.474
68.91,3.799,3.062,-0.854,-0.456
68.94,3.613,2.925,-0.957,-0.223
68.97,3.433,2.871,-0.986,0.056
69.00,3.252,2.769,-0.898,-0.026
69.03,3.086,2.632,-0.713,-0.211
69.06,2.944,2.583,-0.562,-0.042
69.09,2.866,2.456,-0.449,-0.372
69.12,2.798,2.422,-0.396,-0.196
69.15,2.734,2.368,-0.391,-0.191
69.18,2.661,2.373,-0.366,0.009
69.21,2.593,2.480,-0.313,0.368
69.24,2.578,2.720,-0.137,0.700
69.27,2.446,3.032,0.195,1.375
69.30,2.563,3.193,0.625,0.477
69.33,2.676,3.398,0.947,0.483
69.36,2.939,3.584,0.869,0.229
69.39,3.145,3.828,0.859,0.451
69.42,3.301,4.146,0.869,0.875
69.45,3.477,4.434,1.050,0.806
69.48,3.770,4.712,1.401,0.355
69.51,4.038,4.863,1.382,0.128
69.54,4.316,5.103,1.362,0.249
69.57,4.551,5.317,1.265,0.358
69.60,4.795,5.498,1.206,0.225
69.63,5.044,5.557,1.113,-0.194
69.66,5.288,5.576,0.962,-0.448
69.69,5.439,5.615,0.708,-0.217
69.72,5.557,5.649,0.376,-0.073
69.75,5.601,5.635,0.200,-0.074
69.78,5.635,5.645,0.059,-0.007
69.81,5.649,5.684,-0.049,0.135
69.84,5.654,5.728,-0.088,0.194
69.87,5.645,5.928,-0.024,0.685
69.90,5.615,6.060,0.132,0.700
69.93,5.718,6.084,0.366,0.016
69.96,5.796,6.074,0.405,-0.108
69.99,5.859,6.064,0.254,-0.032
70.02,5.918,6.084,0.103,0.060
70.05,5.918,6.074,-0.034,0.152
70.08,5.928,6.089,-0.020,0.134
70.11,5.913,6.079,-0.029,0.146
70.14,5.928,6.089,-0.015,0.109
70.17,5.918,6.094,-0.073,0.199
70.20,5.918,6.084,-0.024,0.096
70.23,5.918,6.069,-0.059,0.098
70.26,5.918,6.069,-0.029,0.100
70.29,5.913,6.074,-0.034,0.147
70.32,5.908,6.079,-0.024,0.154
70.35,5.918,6.089,-0.015,0.130
70.38,5.879,6.099,-0.024,0.283
70.41,5.889,6.074,-0.020,0.086
70.44,5.918,6.079,-0.093,0.102
70.47,5.884,6.099,-0.015,0.242
70.50,5.918,6.089,-0.044,0.065
70.53,5.869,6.089,-0.039,0.264
70.56,5.918,6.094,-0.024,0.049
70.59,5.918,6.079,-0.049,0.089
70.62,5.918,6.079,-0.020,0.103
70.65,5.913,6.099,-0.020,0.193
70.68,5.923,6.084,-0.020,0.079
70.71,5.923,6.084,-0.049,0.132
70.74,5.923,6.089,-0.039,0.138
70.77,5.923,6.064,-0.039,0.059
70.80,5.923,6.089,-0.029,0.169
70.83,5.923,6.064,-0.078,0.093
70.86,5.923,6.094,-0.024,0.169
70.89,5.923,6.079,-0.029,0.098
70.92,5.923,6.084,-0.020,0.126
70.95,5.908,6.074,-0.034,0.148
70.98,5.908,6.084,-0.020,0.154
71.01,5.894,6.094,-0.039,0.224
71.04,5.918,6.084,-0.015,0.052
71.07,5.923,6.079,-0.063,0.112
71.10,5.918,6.079,-0.068,0.141
71.13,5.938,6.064,-0.024,0.004
71.16,5.908,6.094,-0.044,0.267
71.19,5.918,6.094,-0.020,0.126
71.22,5.923,6.060,-0.063,0.042
71.25,5.928,6.089,-0.044,0.160
71.28,5.918,6.079,-0.024,0.122
71.31,5.918,6.089,-0.024,0.153
71.34,5.913,6.069,-0.054,0.110
71.37,5.913,6.089,-0.024,0.163
71.40,5.942,6.079,-0.024,0.024
71.43,5.923,6.094,-0.078,0.224
71.46,5.928,6.055,-0.029,-0.004
71.49,5.918,6.079,-0.029,0.181
71.52,5.913,6.079,-0.020,0.145
71.55,5.933,6.079,-0.020,0.072
71.58,5.918,6.006,-0.039,-0.059
71.61,5.918,6.079,-0.034,0.262
71.64,5.913,6.079,-0.020,0.159
71.67,5.923,6.084,-0.049,0.137
71.70,5.918,6.079,-0.015,0.109
71.73,5.908,6.030,-0.029,0.012
71.76,5.894,6.099,-0.073,0.355
71.79,5.908,6.079,-0.078,0.103
71.82,5.923,6.079,-0.039,0.065
71.85,5.864,6.084,-0.010,0.284
71.88,5.928,6.094,-0.063,0.061
71.91,5.918,6.113,-0.024,0.184
71.94,5.918,6.064,-0.015,0.005
71.97,5.908,6.069,-0.039,0.149
72.00,5.933,6.094,-0.029,0.125
72.03,5.898,6.089,-0.044,0.222
72.06,5.894,6.079,-0.024,0.138
72.09,5.913,6.089,-0.015,0.107
72.12,5.918,6.001,-0.029,-0.141
72.15,5.913,6.069,-0.054,0.259
72.18,5.923,6.064,-0.015,0.085
72.21,5.918,6.084,-0.034,0.189
72.24,5.918,6.060,-0.034,0.068
72.27,5.923,6.094,-0.049,0.199
72.30,5.894,6.089,-0.024,0.207
72.33,5.913,6.079,-0.039,0.082
72.36,5.923,6.084,-0.073,0.127
72.39,5.903,6.084,-0.117,0.216
72.42,5.923,6.069,-0.024,0.007
72.45,5.942,6.108,-0.034,0.157
72.48,5.933,6.079,-0.015,0.065
72.51,5.874,6.074,-0.039,0.278
72.54,5.884,6.064,-0.098,0.157
72.57,5.918,6.006,-0.024,-0.171
72.60,5.894,6.074,-0.068,0.326
72.63,5.923,6.089,0.000,0.097
72.66,5.908,6.045,-0.034,0.052
72.69,5.918,6.089,-0.015,0.187
72.72,5.928,6.099,-0.020,0.145
72.75,5.894,6.074,-0.073,0.195
72.78,5.840,6.084,-0.029,0.320
72.81,5.918,6.079,-0.015,-0.044
72.84,5.923,6.055,-0.044,0.019
72.87,5.923,6.084,-0.029,0.167
72.90,5.923,6.074,-0.015,0.096
72.93,5.913,6.079,-0.024,0.161
72.96,5.918,6.050,-0.024,0.032
72.99,5.918,6.084,-0.039,0.200
73.02,5.928,6.069,-0.020,0.059
73.05,5.947,6.011,-0.034,-0.126
73.08,5.923,6.079,-0.024,0.289
73.11,5.918,6.099,-0.015,0.222
73.14,5.913,6.084,-0.093,0.172
73.17,5.923,6.094,-0.034,0.113
73.20,5.913,6.094,-0.029,0.156
73.23,5.918,6.084,-0.034,0.102
73.26,5.918,6.035,-0.039,-0.019
73.29,5.918,6.079,-0.029,0.197
73.32,5.923,6.079,-0.029,0.125
73.35,5.918,6.084,-0.029,0.152
73.38,5.938,6.084,-0.010,0.063
73.41,5.923,6.084,-0.049,0.169
73.44,5.923,6.099,-0.059,0.186
73.47,5.923,6.079,-0.029,0.074
73.50,5.918,6.084,-0.063,0.162
73.53,5.928,6.084,0.000,0.072
73.56,5.923,6.074,-0.029,0.111
73.59,5.933,6.084,-0.020,0.111
73.62,5.854,6.079,-0.024,0.338
73.65,5.913,6.025,-0.020,-0.135
73.68,5.918,6.079,-0.098,0.236
73.71,5.923,6.099,-0.020,0.153
73.74,5.879,6.050,-0.039,0.135
73.77,5.913,6.089,-0.029,0.143
73.80,5.918,6.079,-0.029,0.094
73.83,5.923,6.064,-0.073,0.087
73.86,5.923,6.084,-0.034,0.146
73.89,5.918,6.079,-0.020,0.121
73.92,5.889,6.079,-0.063,0.238
73.95,5.898,6.084,-0.024,0.131
73.98,5.903,6.079,-0.039,0.120
74.01,5.859,6.050,-0.034,0.175
74.04,5.918,6.079,-0.049,0.074
74.07,5.913,6.079,-0.029,0.120
74.10,5.918,6.079,-0.034,0.115
74.13,5.918,6.084,-0.020,0.130
74.16,5.918,6.079,-0.024,0.116
74.19,5.923,6.084,-0.020,0.120
74.22,5.923,6.084,-0.029,0.129
74.25,5.908,6.060,-0.034,0.100
74.28,5.908,6.074,-0.024,0.153
74.31,5.879,6.050,-0.044,0.159
74.34,5.913,6.079,-0.024,0.113
74.37,5.913,6.094,-0.029,0.172
74.40,5.933,6.094,-0.024,0.085
74.43,5.879,6.040,-0.029,0.120
74.46,5.923,6.079,-0.024,0.107
74.49,5.923,6.089,-0.015,0.141
74.52,5.908,6.089,-0.049,0.194
74.55,5.928,6.069,-0.020,0.018
74.58,5.923,6.084,-0.020,0.150
74.61,5.918,6.099,-0.059,0.211
74.64,5.918,6.074,-0.024,0.064
74.67,5.884,6.094,-0.034,0.276
74.70,5.923,6.035,-0.024,-0.113
74.73,5.923,6.094,-0.044,0.235
74.76,5.908,6.079,0.000,0.128
74.79,5.918,6.089,-0.049,0.158
74.82,5.928,6.079,-0.039,0.075
74.85,5.903,6.084,-0.034,0.196
74.88,5.908,6.089,-0.024,0.146
74.91,5.913,6.069,-0.054,0.085
74.94,5.918,6.089,-0.024,0.144
74.97,5.913,6.079,-0.049,0.134
75.00,5.923,6.099,-0.029,0.150
75.03,5.913,6.079,-0.039,0.116
75.06,5.928,6.089,-0.020,0.101
75.09,5.938,6.084,-0.063,0.102
75.12,5.903,6.084,-0.015,0.189
75.15,5.923,6.064,-0.020,0.034
75.18,5.928,6.079,-0.010,0.117
75.21,5.894,6.084,-0.024,0.241
75.24,5.884,6.074,-0.039,0.174
75.27,5.938,6.094,-0.024,0.042
75.30,5.913,6.074,-0.029,0.123
75.33,5.908,6.089,-0.029,0.183
75.36,5.923,6.089,-0.034,0.108
75.39,5.913,6.074,-0.010,0.096
75.42,5.933,6.084,-0.068,0.123
75.45,5.923,6.079,-0.034,0.118
75.48,5.928,6.094,-0.024,0.145
75.51,5.908,6.094,-0.024,0.190
75.54,5.918,6.084,-0.024,0.094
75.57,5.923,6.079,-0.024,0.092
75.60,5.908,6.069,-0.029,0.133
75.63,5.928,6.089,-0.024,0.124
75.66,5.923,6.074,-0.034,0.101
75.69,5.928,6.045,-0.020,0.004
75.72,5.913,6.079,-0.073,0.252
75.75,5.923,6.094,-0.029,0.147
75.78,5.928,6.089,-0.005,0.092
75.81,5.928,6.084,-0.029,0.116
75.84,5.928,6.074,-0.024,0.088
75.87,5.923,6.079,-0.073,0.167
75.90,5.908,6.084,-0.044,0.177
75.93,5.903,6.089,-0.024,0.164
75.96,5.923,6.079,-0.010,0.050
75.99,5.923,6.084,-0.024,0.128
76.02,5.923,6.099,-0.029,0.172
76.05,5.933,6.094,-0.034,0.102
76.08,5.913,6.084,-0.034,0.151
76.11,5.908,6.069,-0.068,0.128
76.14,5.913,6.069,-0.020,0.087
76.17,5.913,6.074,-0.039,0.140
76.20,5.918,6.084,-0.024,0.135
76.23,5.923,6.064,-0.024,0.056
76.26,5.908,6.089,-0.044,0.228
76.29,5.923,6.084,-0.024,0.089
76.32,5.928,6.104,-0.024,0.161
76.35,5.923,6.016,-0.020,-0.111
76.38,5.908,6.069,-0.034,0.250
76.41,5.923,6.108,-0.020,0.215
76.44,5.845,6.084,-0.024,0.321
76.47,5.913,6.045,-0.078,-0.079
76.50,5.923,6.084,-0.039,0.137
76.53,5.918,6.089,-0.034,0.155
76.56,5.908,6.084,-0.034,0.152
76.59,5.859,6.074,-0.020,0.248
76.62,5.928,6.069,-0.020,-0.039
76.65,5.913,6.079,-0.044,0.167
76.68,5.918,6.079,-0.024,0.112
76.71,5.957,6.079,-0.020,0.002
76.74,5.859,6.079,-0.054,0.389
76.77,5.913,6.094,-0.034,0.087
76.80,5.942,6.084,-0.039,0.016
76.83,5.913,6.094,-0.029,0.204
76.86,5.928,6.050,-0.024,-0.026
76.89,5.918,6.084,-0.029,0.206
76.92,5.928,6.060,-0.029,0.042
76.95,5.908,6.074,-0.024,0.191
76.98,5.928,6.099,-0.029,0.158
77.01,5.889,6.094,-0.039,0.246
77.04,5.918,6.079,-0.024,0.036
77.07,5.928,6.069,-0.039,0.057
77.10,5.859,6.030,-0.020,0.177
77.13,5.913,6.084,-0.024,0.143
77.16,5.913,6.079,-0.039,0.128
77.19,5.898,6.069,-0.024,0.136
77.22,5.928,6.084,-0.015,0.083
77.25,5.928,6.084,-0.029,0.121
77.28,5.918,6.074,-0.034,0.124
77.31,5.923,6.084,-0.034,0.137
77.34,5.903,6.084,0.005,0.163
77.37,5.918,5.996,-0.020,-0.152
77.40,5.923,6.069,-0.029,0.230
77.43,5.923,6.094,-0.024,0.208
77.46,5.918,6.069,-0.063,0.112
77.49,5.908,6.055,-0.049,0.097
77.52,5.923,6.035,-0.029,-0.001
77.55,5.923,6.084,-0.034,0.220
77.58,5.928,6.094,-0.015,0.148
77.61,5.918,6.069,-0.029,0.096
77.64,5.923,6.079,-0.024,0.125
77.67,5.913,6.074,-0.103,0.183
77.70,5.923,6.084,-0.020,0.096
77.73,5.928,6.069,-0.029,0.065
77.76,5.923,6.045,-0.103,0.087
77.79,5.894,6.079,-0.059,0.267
77.82,5.928,5.996,-0.015,-0.206
77.85,5.918,6.094,-0.063,0.353
77.88,5.918,6.045,0.015,-0.010
77.91,5.933,6.069,-0.029,0.128
77.94,5.923,6.074,-0.029,0.155
77.97,5.894,6.079,-0.029,0.228
78.00,5.918,6.074,-0.034,0.075
78.03,5.923,6.089,-0.029,0.139
78.06,5.918,6.084,-0.034,0.134
78.09,5.923,6.089,-0.029,0.128
78.12,5.913,6.040,-0.093,0.050
78.15,5.923,6.069,-0.024,0.115
78.18,5.933,6.079,-0.034,0.120
78.21,5.933,6.084,-0.088,0.163
78.24,5.913,6.084,-0.020,0.152
78.27,5.933,6.074,-0.034,0.056
78.30,5.928,6.089,-0.029,0.156
78.33,5.938,6.094,-0.024,0.114
78.36,5.918,6.084,-0.029,0.152
78.39,5.884,6.069,-0.034,0.195
78.42,5.918,6.089,-0.029,0.108
78.45,5.913,6.079,-0.039,0.119
78.48,5.933,6.094,-0.015,0.099
78.51,5.918,6.079,-0.029,0.127
78.54,5.869,6.030,-0.024,0.123
78.57,5.938,6.084,-0.029,0.083
78.60,5.923,6.074,-0.024,0.120
78.63,5.923,6.079,-0.010,0.124
78.66,5.928,6.074,-0.024,0.099
78.69,5.913,6.074,-0.029,0.158
78.72,5.913,6.074,-0.029,0.132
78.75,5.928,6.104,-0.020,0.165
78.78,5.908,6.094,-0.024,0.173
78.81,5.918,6.084,-0.054,0.108
78.84,5.928,6.084,-0.015,0.075
78.87,5.889,6.079,-0.034,0.225
78.90,5.933,6.060,-0.029,-0.030
78.93,5.913,6.035,-0.029,0.059
78.96,5.879,6.089,-0.020,0.346
78.99,5.903,6.084,-0.059,0.133
79.02,5.918,6.084,-0.063,0.101
79.05,5.923,6.079,-0.029,0.078
79.08,5.933,6.099,-0.020,0.136
79.11,5.908,6.084,-0.034,0.167
79.14,5.923,6.094,-0.029,0.125
79.17,5.918,6.069,-0.024,0.070
79.20,5.918,6.084,-0.029,0.155
79.23,5.928,6.079,-0.029,0.090
79.26,5.923,6.084,-0.010,0.130
79.29,5.908,6.060,-0.039,0.112
79.32,5.908,6.016,-0.029,-0.020
79.35,5.918,6.099,-0.024,0.281
79.38,5.918,6.084,-0.015,0.118
79.41,5.923,6.079,-0.024,0.101
79.44,5.903,6.079,-0.029,0.178
79.47,5.825,6.074,-0.029,0.364
79.50,5.859,6.089,-0.020,0.161
79.53,5.928,6.069,-0.024,-0.088
79.56,5.918,6.069,-0.044,0.111
79.59,5.918,6.074,-0.029,0.124
79.62,5.928,6.094,-0.020,0.146
79.65,5.918,6.079,-0.029,0.122
79.68,5.933,6.074,-0.024,0.063
79.71,5.840,6.094,-0.034,0.443
79.74,5.928,6.055,0.020,-0.168
79.77,5.933,6.084,-0.059,0.160
79.80,5.928,6.084,-0.039,0.133
79.83,5.908,6.079,-0.029,0.163
79.86,5.933,6.064,-0.029,0.021
79.89,5.928,6.094,-0.029,0.189
79.92,5.938,6.099,-0.034,0.129
79.95,5.942,6.079,-0.020,0.045
79.98,5.884,6.079,-0.029,0.275
80.01,5.933,6.094,-0.034,0.076
80.04,5.938,6.069,-0.029,0.025
80.07,5.913,5.977,-0.029,-0.117
80.10,5.933,5.815,-0.063,-0.503
80.13,5.928,5.459,-0.151,-1.165
80.16,5.933,5.078,-0.591,-1.390
80.19,5.713,4.536,-1.538,-1.118
80.22,5.332,3.931,-2.227,-1.006
80.25,4.834,3.306,-2.739,-0.848
80.28,4.287,2.734,-3.066,-0.635
80.31,3.623,2.197,-3.193,-0.234
80.34,3.032,1.807,-3.130,0.044
80.37,2.441,1.494,-2.993,0.402
80.40,1.797,1.196,-2.725,0.750
80.43,1.348,1.123,-2.173,0.913
80.46,0.996,1.108,-1.069,0.657
80.49,0.894,1.143,-0.083,0.146
80.52,0.894,1.113,0.034,0.030
80.55,0.898,1.152,-0.039,0.280
80.58,0.918,1.152,-0.024,0.146
80.61,0.820,1.143,-0.034,0.442
80.64,0.869,1.143,-0.024,0.134
80.67,0.908,1.167,-0.034,0.156
80.70,0.898,1.147,-0.024,0.155
80.73,0.898,1.108,-0.029,0.069
80.76,0.879,1.133,-0.024,0.272
80.79,0.898,1.143,-0.020,0.177
80.82,0.918,1.162,-0.044,0.199
80.85,0.898,1.162,-0.024,0.238
80.88,0.894,1.094,-0.034,0.024
80.91,0.889,1.162,-0.049,0.358
80.94,0.903,1.152,-0.020,0.151
80.97,0.898,1.138,-0.029,0.158
81.00,0.879,1.162,-0.034,0.314
81.03,0.884,1.152,-0.039,0.196
81.06,0.908,1.143,-0.020,0.091
81.09,0.884,1.143,-0.020,0.234
81.12,0.869,1.143,-0.029,0.254
81.15,0.903,1.157,-0.034,0.163
81.18,0.903,1.152,-0.024,0.168
81.21,0.903,1.138,-0.029,0.145
81.24,0.894,1.138,-0.029,0.202
81.27,0.903,1.104,-0.063,0.079
81.30,0.889,1.143,-0.024,0.281
81.33,0.894,1.152,-0.034,0.232
81.36,0.908,1.152,-0.029,0.159
81.39,0.898,1.123,-0.029,0.123
81.42,0.898,1.152,-0.029,0.251
81.45,0.908,1.157,-0.029,0.191
81.48,0.874,1.162,-0.039,0.314
81.51,0.898,1.143,-0.034,0.106
81.54,0.884,1.152,-0.024,0.239
81.57,0.894,1.162,-0.034,0.218
81.60,0.889,1.143,-0.020,0.156
81.63,0.898,1.157,-0.024,0.203
81.66,0.884,1.147,-0.078,0.246
81.69,0.903,1.162,-0.034,0.176
81.72,0.908,1.147,-0.020,0.127
81.75,0.869,1.138,-0.049,0.277
81.78,0.894,1.167,-0.010,0.214
81.81,0.874,1.138,-0.029,0.190
81.84,0.889,1.143,-0.029,0.170
81.87,0.889,1.167,-0.059,0.281
81.90,0.889,1.162,-0.039,0.204
81.93,0.889,1.152,-0.039,0.180
81.96,0.864,1.152,-0.039,0.272
81.99,0.903,1.133,-0.034,0.053
82.02,0.898,1.143,-0.024,0.191
82.05,0.879,1.147,-0.029,0.264
82.08,0.908,1.157,-0.029,0.159
82.11,0.908,1.118,-0.059,0.085
82.14,0.903,1.147,-0.020,0.229
82.17,0.889,1.133,-0.029,0.201
82.20,0.898,1.152,-0.039,0.225
82.23,0.859,1.157,-0.029,0.328
82.26,0.898,1.147,-0.034,0.104
82.29,0.898,1.143,-0.103,0.201
82.32,0.889,1.147,-0.039,0.205
82.35,0.854,1.152,-0.020,0.306
82.38,0.889,1.157,-0.024,0.157
82.41,0.894,1.152,-0.034,0.172
82.44,0.903,1.157,-0.029,0.176
82.47,0.898,1.152,-0.024,0.188
82.50,0.898,1.143,-0.044,0.175
82.53,0.840,1.147,-0.029,0.368
82.56,0.918,1.162,-0.015,0.063
82.59,0.908,1.143,-0.029,0.140
82.62,0.913,1.157,-0.034,0.204
82.65,0.908,1.162,-0.088,0.253
82.68,0.903,1.108,-0.049,0.044
82.71,0.903,1.157,-0.024,0.269
82.74,0.889,1.152,-0.029,0.241
82.77,0.903,1.157,-0.034,0.184
82.80,0.908,1.152,-0.024,0.158
82.83,0.898,1.147,-0.039,0.204
82.86,0.898,1.152,-0.020,0.198
82.89,0.898,1.152,-0.044,0.209
82.92,0.894,1.118,-0.073,0.129
82.95,0.894,1.162,-0.029,0.275
82.98,0.898,1.147,-0.020,0.155
83.01,0.908,1.064,-0.063,-0.069
83.04,0.913,1.157,-0.034,0.334
83.07,0.894,1.147,-0.078,0.273
83.10,0.908,1.157,-0.044,0.181
83.13,0.898,1.147,-0.024,0.179
83.16,0.894,1.123,-0.034,0.135
83.19,0.859,1.152,-0.024,0.353
83.22,0.889,1.147,-0.083,0.182
83.25,0.913,1.167,-0.034,0.158
83.28,0.859,1.123,-0.039,0.220
83.31,0.879,1.143,-0.034,0.204
83.34,0.908,1.152,-0.034,0.145
83.37,0.894,1.162,-0.029,0.250
83.40,0.894,1.152,-0.034,0.188
83.43,0.894,1.138,-0.034,0.153
83.46,0.894,1.133,-0.020,0.158
83.49,0.898,1.152,-0.034,0.230
83.52,0.898,1.152,-0.029,0.200
83.55,0.894,1.143,-0.020,0.175
83.58,0.898,1.138,-0.044,0.172
83.61,0.903,1.147,-0.039,0.195
83.64,0.894,1.157,-0.029,0.243
83.67,0.898,1.133,-0.024,0.119
83.70,0.845,1.128,-0.029,0.317
83.73,0.889,1.157,-0.020,0.187
83.76,0.898,1.167,-0.029,0.207
83.79,0.894,1.157,-0.029,0.191
83.82,0.913,1.152,-0.034,0.130
83.85,0.889,1.162,-0.029,0.273
83.88,0.840,1.152,-0.029,0.339
83.91,0.903,1.147,-0.024,0.051
83.94,0.903,1.147,-0.073,0.189
83.97,0.908,1.157,-0.029,0.181
84.00,0.874,1.108,-0.024,0.142
84.03,0.903,1.152,-0.029,0.219
84.06,0.894,1.113,-0.024,0.106
84.09,0.898,1.157,-0.010,0.264
84.12,0.898,1.167,-0.029,0.250
84.15,0.908,1.152,-0.015,0.133
84.18,0.889,1.152,-0.029,0.242
84.21,0.894,1.143,-0.034,0.169
84.24,0.908,1.143,-0.029,0.140
84.27,0.854,1.152,-0.039,0.369
84.30,0.859,1.143,-0.024,0.204
84.33,0.923,1.152,-0.020,0.050
84.36,0.898,1.152,-0.093,0.267
84.39,0.898,1.147,-0.005,0.150
84.42,0.903,1.152,-0.044,0.203
84.45,0.894,1.143,-0.049,0.198
84.48,0.811,1.147,-0.024,0.444
84.51,0.898,1.104,-0.020,-0.105
84.54,0.898,1.152,-0.034,0.260
